# E (eV)   ldos(E)   pdos(E)    pdos(E)    pdos(E)   
  -6.565  0.104E-07  0.347E-08  0.347E-08  0.347E-08
  -6.515  0.352E-07  0.117E-07  0.117E-07  0.117E-07
  -6.465  0.111E-06  0.371E-07  0.371E-07  0.371E-07
  -6.415  0.330E-06  0.110E-06  0.110E-06  0.110E-06
  -6.365  0.921E-06  0.307E-06  0.307E-06  0.307E-06
  -6.315  0.241E-05  0.804E-06  0.804E-06  0.804E-06
  -6.265  0.594E-05  0.198E-05  0.198E-05  0.198E-05
  -6.215  0.138E-04  0.460E-05  0.460E-05  0.460E-05
  -6.165  0.302E-04  0.101E-04  0.101E-04  0.101E-04
  -6.115  0.626E-04  0.209E-04  0.209E-04  0.209E-04
  -6.065  0.123E-03  0.409E-04  0.409E-04  0.409E-04
  -6.015  0.229E-03  0.762E-04  0.762E-04  0.762E-04
  -5.965  0.405E-03  0.135E-03  0.135E-03  0.135E-03
  -5.915  0.683E-03  0.228E-03  0.228E-03  0.228E-03
  -5.865  0.110E-02  0.367E-03  0.367E-03  0.367E-03
  -5.815  0.169E-02  0.565E-03  0.565E-03  0.565E-03
  -5.765  0.250E-02  0.834E-03  0.834E-03  0.834E-03
  -5.715  0.355E-02  0.118E-02  0.118E-02  0.118E-02
  -5.665  0.484E-02  0.161E-02  0.161E-02  0.161E-02
  -5.615  0.638E-02  0.213E-02  0.213E-02  0.213E-02
  -5.565  0.814E-02  0.271E-02  0.271E-02  0.271E-02
  -5.515  0.101E-01  0.337E-02  0.337E-02  0.337E-02
  -5.465  0.122E-01  0.408E-02  0.408E-02  0.408E-02
  -5.415  0.145E-01  0.485E-02  0.485E-02  0.485E-02
  -5.365  0.170E-01  0.566E-02  0.566E-02  0.566E-02
  -5.315  0.195E-01  0.652E-02  0.652E-02  0.652E-02
  -5.265  0.222E-01  0.739E-02  0.739E-02  0.739E-02
  -5.215  0.248E-01  0.826E-02  0.826E-02  0.826E-02
  -5.165  0.273E-01  0.910E-02  0.910E-02  0.910E-02
  -5.115  0.297E-01  0.990E-02  0.990E-02  0.990E-02
  -5.065  0.320E-01  0.107E-01  0.107E-01  0.107E-01
  -5.015  0.343E-01  0.114E-01  0.114E-01  0.114E-01
  -4.965  0.367E-01  0.122E-01  0.122E-01  0.122E-01
  -4.915  0.394E-01  0.131E-01  0.131E-01  0.131E-01
  -4.865  0.422E-01  0.141E-01  0.141E-01  0.141E-01
  -4.815  0.452E-01  0.151E-01  0.151E-01  0.151E-01
  -4.765  0.482E-01  0.161E-01  0.161E-01  0.161E-01
  -4.715  0.508E-01  0.169E-01  0.169E-01  0.169E-01
  -4.665  0.530E-01  0.177E-01  0.177E-01  0.177E-01
  -4.615  0.548E-01  0.183E-01  0.183E-01  0.183E-01
  -4.565  0.562E-01  0.187E-01  0.187E-01  0.187E-01
  -4.515  0.577E-01  0.192E-01  0.192E-01  0.192E-01
  -4.465  0.595E-01  0.198E-01  0.198E-01  0.198E-01
  -4.415  0.620E-01  0.207E-01  0.207E-01  0.207E-01
  -4.365  0.652E-01  0.217E-01  0.217E-01  0.217E-01
  -4.315  0.689E-01  0.230E-01  0.230E-01  0.230E-01
  -4.265  0.727E-01  0.242E-01  0.242E-01  0.242E-01
  -4.215  0.763E-01  0.254E-01  0.254E-01  0.254E-01
  -4.165  0.790E-01  0.263E-01  0.263E-01  0.263E-01
  -4.115  0.807E-01  0.269E-01  0.269E-01  0.269E-01
  -4.065  0.817E-01  0.272E-01  0.272E-01  0.272E-01
  -4.015  0.822E-01  0.274E-01  0.274E-01  0.274E-01
  -3.965  0.830E-01  0.277E-01  0.277E-01  0.277E-01
  -3.915  0.846E-01  0.282E-01  0.282E-01  0.282E-01
  -3.865  0.874E-01  0.291E-01  0.291E-01  0.291E-01
  -3.815  0.916E-01  0.305E-01  0.305E-01  0.305E-01
  -3.765  0.967E-01  0.322E-01  0.322E-01  0.322E-01
  -3.715  0.102E+00  0.341E-01  0.341E-01  0.341E-01
  -3.665  0.108E+00  0.359E-01  0.359E-01  0.359E-01
  -3.615  0.113E+00  0.375E-01  0.375E-01  0.375E-01
  -3.565  0.116E+00  0.387E-01  0.387E-01  0.387E-01
  -3.515  0.118E+00  0.395E-01  0.395E-01  0.395E-01
  -3.465  0.120E+00  0.399E-01  0.399E-01  0.399E-01
  -3.415  0.120E+00  0.402E-01  0.402E-01  0.402E-01
  -3.365  0.121E+00  0.404E-01  0.404E-01  0.404E-01
  -3.315  0.122E+00  0.407E-01  0.407E-01  0.407E-01
  -3.265  0.123E+00  0.411E-01  0.411E-01  0.411E-01
  -3.215  0.125E+00  0.418E-01  0.418E-01  0.418E-01
  -3.165  0.127E+00  0.424E-01  0.424E-01  0.424E-01
  -3.115  0.128E+00  0.428E-01  0.428E-01  0.428E-01
  -3.065  0.129E+00  0.429E-01  0.429E-01  0.429E-01
  -3.015  0.128E+00  0.426E-01  0.426E-01  0.426E-01
  -2.965  0.126E+00  0.420E-01  0.420E-01  0.420E-01
  -2.915  0.123E+00  0.410E-01  0.410E-01  0.410E-01
  -2.865  0.120E+00  0.400E-01  0.400E-01  0.400E-01
  -2.815  0.117E+00  0.391E-01  0.391E-01  0.391E-01
  -2.765  0.115E+00  0.383E-01  0.383E-01  0.383E-01
  -2.715  0.113E+00  0.377E-01  0.377E-01  0.377E-01
  -2.665  0.111E+00  0.372E-01  0.372E-01  0.372E-01
  -2.615  0.110E+00  0.366E-01  0.366E-01  0.366E-01
  -2.565  0.108E+00  0.359E-01  0.359E-01  0.359E-01
  -2.515  0.105E+00  0.349E-01  0.349E-01  0.349E-01
  -2.465  0.101E+00  0.337E-01  0.337E-01  0.337E-01
  -2.415  0.975E-01  0.325E-01  0.325E-01  0.325E-01
  -2.365  0.942E-01  0.314E-01  0.314E-01  0.314E-01
  -2.315  0.918E-01  0.306E-01  0.306E-01  0.306E-01
  -2.265  0.902E-01  0.301E-01  0.301E-01  0.301E-01
  -2.215  0.891E-01  0.297E-01  0.297E-01  0.297E-01
  -2.165  0.878E-01  0.293E-01  0.293E-01  0.293E-01
  -2.115  0.855E-01  0.285E-01  0.285E-01  0.285E-01
  -2.065  0.816E-01  0.272E-01  0.272E-01  0.272E-01
  -2.015  0.761E-01  0.254E-01  0.254E-01  0.254E-01
  -1.965  0.691E-01  0.230E-01  0.230E-01  0.230E-01
  -1.915  0.616E-01  0.205E-01  0.205E-01  0.205E-01
  -1.865  0.543E-01  0.181E-01  0.181E-01  0.181E-01
  -1.815  0.483E-01  0.161E-01  0.161E-01  0.161E-01
  -1.765  0.440E-01  0.147E-01  0.147E-01  0.147E-01
  -1.715  0.416E-01  0.139E-01  0.139E-01  0.139E-01
  -1.665  0.408E-01  0.136E-01  0.136E-01  0.136E-01
  -1.615  0.410E-01  0.137E-01  0.137E-01  0.137E-01
  -1.565  0.415E-01  0.138E-01  0.138E-01  0.138E-01
  -1.515  0.416E-01  0.139E-01  0.139E-01  0.139E-01
  -1.465  0.411E-01  0.137E-01  0.137E-01  0.137E-01
  -1.415  0.403E-01  0.134E-01  0.134E-01  0.134E-01
  -1.365  0.397E-01  0.132E-01  0.132E-01  0.132E-01
  -1.315  0.405E-01  0.135E-01  0.135E-01  0.135E-01
  -1.265  0.435E-01  0.145E-01  0.145E-01  0.145E-01
  -1.215  0.496E-01  0.165E-01  0.165E-01  0.165E-01
  -1.165  0.593E-01  0.198E-01  0.198E-01  0.198E-01
  -1.115  0.723E-01  0.241E-01  0.241E-01  0.241E-01
  -1.065  0.880E-01  0.293E-01  0.293E-01  0.293E-01
  -1.015  0.106E+00  0.353E-01  0.353E-01  0.353E-01
  -0.965  0.125E+00  0.417E-01  0.417E-01  0.417E-01
  -0.915  0.146E+00  0.486E-01  0.486E-01  0.486E-01
  -0.865  0.168E+00  0.560E-01  0.560E-01  0.560E-01
  -0.815  0.192E+00  0.640E-01  0.640E-01  0.640E-01
  -0.765  0.217E+00  0.724E-01  0.724E-01  0.724E-01
  -0.715  0.243E+00  0.810E-01  0.810E-01  0.810E-01
  -0.665  0.267E+00  0.891E-01  0.891E-01  0.891E-01
  -0.615  0.288E+00  0.959E-01  0.959E-01  0.959E-01
  -0.565  0.302E+00  0.101E+00  0.101E+00  0.101E+00
  -0.515  0.310E+00  0.103E+00  0.103E+00  0.103E+00
  -0.465  0.309E+00  0.103E+00  0.103E+00  0.103E+00
  -0.415  0.303E+00  0.101E+00  0.101E+00  0.101E+00
  -0.365  0.291E+00  0.972E-01  0.972E-01  0.972E-01
  -0.315  0.277E+00  0.923E-01  0.923E-01  0.923E-01
  -0.265  0.261E+00  0.869E-01  0.869E-01  0.869E-01
  -0.215  0.244E+00  0.812E-01  0.812E-01  0.812E-01
  -0.165  0.227E+00  0.757E-01  0.757E-01  0.757E-01
  -0.115  0.211E+00  0.704E-01  0.704E-01  0.704E-01
  -0.065  0.197E+00  0.657E-01  0.657E-01  0.657E-01
  -0.015  0.185E+00  0.618E-01  0.618E-01  0.618E-01
   0.035  0.176E+00  0.586E-01  0.586E-01  0.586E-01
   0.085  0.168E+00  0.560E-01  0.560E-01  0.560E-01
   0.135  0.162E+00  0.540E-01  0.540E-01  0.540E-01
   0.185  0.157E+00  0.523E-01  0.523E-01  0.523E-01
   0.235  0.152E+00  0.508E-01  0.508E-01  0.508E-01
   0.285  0.148E+00  0.494E-01  0.494E-01  0.494E-01
   0.335  0.145E+00  0.483E-01  0.483E-01  0.483E-01
   0.385  0.142E+00  0.475E-01  0.475E-01  0.475E-01
   0.435  0.140E+00  0.468E-01  0.468E-01  0.468E-01
   0.485  0.138E+00  0.461E-01  0.461E-01  0.461E-01
   0.535  0.135E+00  0.451E-01  0.451E-01  0.451E-01
   0.585  0.131E+00  0.437E-01  0.437E-01  0.437E-01
   0.635  0.125E+00  0.418E-01  0.418E-01  0.418E-01
   0.685  0.119E+00  0.396E-01  0.396E-01  0.396E-01
   0.735  0.112E+00  0.374E-01  0.374E-01  0.374E-01
   0.785  0.107E+00  0.356E-01  0.356E-01  0.356E-01
   0.835  0.102E+00  0.341E-01  0.341E-01  0.341E-01
   0.885  0.990E-01  0.330E-01  0.330E-01  0.330E-01
   0.935  0.969E-01  0.323E-01  0.323E-01  0.323E-01
   0.985  0.957E-01  0.319E-01  0.319E-01  0.319E-01
   1.035  0.952E-01  0.317E-01  0.317E-01  0.317E-01
   1.085  0.953E-01  0.318E-01  0.318E-01  0.318E-01
   1.135  0.959E-01  0.320E-01  0.320E-01  0.320E-01
   1.185  0.967E-01  0.322E-01  0.322E-01  0.322E-01
   1.235  0.969E-01  0.323E-01  0.323E-01  0.323E-01
   1.285  0.963E-01  0.321E-01  0.321E-01  0.321E-01
   1.335  0.945E-01  0.315E-01  0.315E-01  0.315E-01
   1.385  0.918E-01  0.306E-01  0.306E-01  0.306E-01
   1.435  0.893E-01  0.298E-01  0.298E-01  0.298E-01
   1.485  0.885E-01  0.295E-01  0.295E-01  0.295E-01
   1.535  0.911E-01  0.304E-01  0.304E-01  0.304E-01
   1.585  0.987E-01  0.329E-01  0.329E-01  0.329E-01
   1.635  0.113E+00  0.376E-01  0.376E-01  0.376E-01
   1.685  0.133E+00  0.445E-01  0.445E-01  0.445E-01
   1.735  0.161E+00  0.536E-01  0.536E-01  0.536E-01
   1.785  0.194E+00  0.646E-01  0.646E-01  0.646E-01
   1.835  0.231E+00  0.770E-01  0.770E-01  0.770E-01
   1.885  0.270E+00  0.901E-01  0.901E-01  0.901E-01
   1.935  0.310E+00  0.103E+00  0.103E+00  0.103E+00
   1.985  0.349E+00  0.116E+00  0.116E+00  0.116E+00
   2.035  0.385E+00  0.128E+00  0.128E+00  0.128E+00
   2.085  0.417E+00  0.139E+00  0.139E+00  0.139E+00
   2.135  0.444E+00  0.148E+00  0.148E+00  0.148E+00
   2.185  0.465E+00  0.155E+00  0.155E+00  0.155E+00
   2.235  0.478E+00  0.159E+00  0.159E+00  0.159E+00
   2.285  0.486E+00  0.162E+00  0.162E+00  0.162E+00
   2.335  0.487E+00  0.162E+00  0.162E+00  0.162E+00
   2.385  0.486E+00  0.162E+00  0.162E+00  0.162E+00
   2.435  0.483E+00  0.161E+00  0.161E+00  0.161E+00
   2.485  0.480E+00  0.160E+00  0.160E+00  0.160E+00
   2.535  0.478E+00  0.159E+00  0.159E+00  0.159E+00
   2.585  0.476E+00  0.159E+00  0.159E+00  0.159E+00
   2.635  0.475E+00  0.158E+00  0.158E+00  0.158E+00
   2.685  0.473E+00  0.158E+00  0.158E+00  0.158E+00
   2.735  0.470E+00  0.157E+00  0.157E+00  0.157E+00
   2.785  0.466E+00  0.155E+00  0.155E+00  0.155E+00
   2.835  0.466E+00  0.155E+00  0.155E+00  0.155E+00
   2.885  0.469E+00  0.156E+00  0.156E+00  0.156E+00
   2.935  0.478E+00  0.159E+00  0.159E+00  0.159E+00
   2.985  0.494E+00  0.165E+00  0.165E+00  0.165E+00
   3.035  0.514E+00  0.171E+00  0.171E+00  0.171E+00
   3.085  0.538E+00  0.179E+00  0.179E+00  0.179E+00
   3.135  0.563E+00  0.188E+00  0.188E+00  0.188E+00
   3.185  0.587E+00  0.196E+00  0.196E+00  0.196E+00
   3.235  0.609E+00  0.203E+00  0.203E+00  0.203E+00
   3.285  0.628E+00  0.209E+00  0.209E+00  0.209E+00
   3.335  0.644E+00  0.215E+00  0.215E+00  0.215E+00
   3.385  0.657E+00  0.219E+00  0.219E+00  0.219E+00
   3.435  0.669E+00  0.223E+00  0.223E+00  0.223E+00
   3.485  0.680E+00  0.227E+00  0.227E+00  0.227E+00
   3.535  0.687E+00  0.229E+00  0.229E+00  0.229E+00
   3.585  0.692E+00  0.231E+00  0.231E+00  0.231E+00
   3.635  0.692E+00  0.231E+00  0.231E+00  0.231E+00
   3.685  0.688E+00  0.229E+00  0.229E+00  0.229E+00
   3.735  0.679E+00  0.226E+00  0.226E+00  0.226E+00
   3.785  0.668E+00  0.223E+00  0.223E+00  0.223E+00
   3.835  0.655E+00  0.218E+00  0.218E+00  0.218E+00
   3.885  0.643E+00  0.214E+00  0.214E+00  0.214E+00
   3.935  0.632E+00  0.211E+00  0.211E+00  0.211E+00
   3.985  0.625E+00  0.208E+00  0.208E+00  0.208E+00
   4.035  0.619E+00  0.206E+00  0.206E+00  0.206E+00
   4.085  0.616E+00  0.205E+00  0.205E+00  0.205E+00
   4.135  0.613E+00  0.204E+00  0.204E+00  0.204E+00
   4.185  0.610E+00  0.203E+00  0.203E+00  0.203E+00
   4.235  0.609E+00  0.203E+00  0.203E+00  0.203E+00
   4.285  0.608E+00  0.203E+00  0.203E+00  0.203E+00
   4.335  0.609E+00  0.203E+00  0.203E+00  0.203E+00
   4.385  0.611E+00  0.204E+00  0.204E+00  0.204E+00
   4.435  0.613E+00  0.204E+00  0.204E+00  0.204E+00
   4.485  0.614E+00  0.205E+00  0.205E+00  0.205E+00
   4.535  0.612E+00  0.204E+00  0.204E+00  0.204E+00
   4.585  0.606E+00  0.202E+00  0.202E+00  0.202E+00
   4.635  0.595E+00  0.198E+00  0.198E+00  0.198E+00
   4.685  0.581E+00  0.194E+00  0.194E+00  0.194E+00
   4.735  0.563E+00  0.188E+00  0.188E+00  0.188E+00
   4.785  0.543E+00  0.181E+00  0.181E+00  0.181E+00
   4.835  0.522E+00  0.174E+00  0.174E+00  0.174E+00
   4.885  0.499E+00  0.166E+00  0.166E+00  0.166E+00
   4.935  0.475E+00  0.158E+00  0.158E+00  0.158E+00
   4.985  0.451E+00  0.150E+00  0.150E+00  0.150E+00
   5.035  0.426E+00  0.142E+00  0.142E+00  0.142E+00
   5.085  0.402E+00  0.134E+00  0.134E+00  0.134E+00
   5.135  0.381E+00  0.127E+00  0.127E+00  0.127E+00
   5.185  0.362E+00  0.121E+00  0.121E+00  0.121E+00
   5.235  0.344E+00  0.115E+00  0.115E+00  0.115E+00
   5.285  0.327E+00  0.109E+00  0.109E+00  0.109E+00
   5.335  0.311E+00  0.104E+00  0.104E+00  0.104E+00
   5.385  0.293E+00  0.977E-01  0.977E-01  0.977E-01
   5.435  0.274E+00  0.914E-01  0.914E-01  0.914E-01
   5.485  0.254E+00  0.848E-01  0.848E-01  0.848E-01
   5.535  0.234E+00  0.779E-01  0.779E-01  0.779E-01
   5.585  0.213E+00  0.709E-01  0.709E-01  0.709E-01
   5.635  0.192E+00  0.640E-01  0.640E-01  0.640E-01
   5.685  0.172E+00  0.574E-01  0.574E-01  0.574E-01
   5.735  0.154E+00  0.512E-01  0.512E-01  0.512E-01
   5.785  0.137E+00  0.456E-01  0.456E-01  0.456E-01
   5.835  0.121E+00  0.404E-01  0.404E-01  0.404E-01
   5.885  0.107E+00  0.358E-01  0.358E-01  0.358E-01
   5.935  0.947E-01  0.316E-01  0.316E-01  0.316E-01
   5.985  0.832E-01  0.277E-01  0.277E-01  0.277E-01
   6.035  0.726E-01  0.242E-01  0.242E-01  0.242E-01
   6.085  0.625E-01  0.208E-01  0.208E-01  0.208E-01
   6.135  0.527E-01  0.176E-01  0.176E-01  0.176E-01
   6.185  0.433E-01  0.144E-01  0.144E-01  0.144E-01
   6.235  0.344E-01  0.115E-01  0.115E-01  0.115E-01
   6.285  0.263E-01  0.878E-02  0.878E-02  0.878E-02
   6.335  0.194E-01  0.647E-02  0.647E-02  0.647E-02
   6.385  0.139E-01  0.462E-02  0.462E-02  0.462E-02
   6.435  0.992E-02  0.331E-02  0.331E-02  0.331E-02
   6.485  0.759E-02  0.253E-02  0.253E-02  0.253E-02
   6.535  0.685E-02  0.228E-02  0.228E-02  0.228E-02
   6.585  0.763E-02  0.254E-02  0.254E-02  0.254E-02
   6.635  0.987E-02  0.329E-02  0.329E-02  0.329E-02
   6.685  0.135E-01  0.450E-02  0.450E-02  0.450E-02
   6.735  0.184E-01  0.613E-02  0.613E-02  0.613E-02
   6.785  0.244E-01  0.814E-02  0.814E-02  0.814E-02
   6.835  0.313E-01  0.104E-01  0.104E-01  0.104E-01
   6.885  0.386E-01  0.129E-01  0.129E-01  0.129E-01
   6.935  0.461E-01  0.154E-01  0.154E-01  0.154E-01
   6.985  0.535E-01  0.178E-01  0.178E-01  0.178E-01
   7.035  0.607E-01  0.202E-01  0.202E-01  0.202E-01
   7.085  0.679E-01  0.226E-01  0.226E-01  0.226E-01
   7.135  0.756E-01  0.252E-01  0.252E-01  0.252E-01
   7.185  0.842E-01  0.281E-01  0.281E-01  0.281E-01
   7.235  0.941E-01  0.314E-01  0.314E-01  0.314E-01
   7.285  0.105E+00  0.351E-01  0.351E-01  0.351E-01
   7.335  0.118E+00  0.393E-01  0.393E-01  0.393E-01
   7.385  0.131E+00  0.437E-01  0.437E-01  0.437E-01
   7.435  0.144E+00  0.480E-01  0.480E-01  0.480E-01
   7.485  0.156E+00  0.521E-01  0.521E-01  0.521E-01
   7.535  0.168E+00  0.559E-01  0.559E-01  0.559E-01
   7.585  0.178E+00  0.593E-01  0.593E-01  0.593E-01
   7.635  0.188E+00  0.625E-01  0.625E-01  0.625E-01
   7.685  0.197E+00  0.658E-01  0.658E-01  0.658E-01
   7.735  0.208E+00  0.692E-01  0.692E-01  0.692E-01
   7.785  0.219E+00  0.729E-01  0.729E-01  0.729E-01
   7.835  0.230E+00  0.767E-01  0.767E-01  0.767E-01
   7.885  0.242E+00  0.807E-01  0.807E-01  0.807E-01
   7.935  0.254E+00  0.845E-01  0.845E-01  0.845E-01
   7.985  0.265E+00  0.882E-01  0.882E-01  0.882E-01
   8.035  0.275E+00  0.918E-01  0.918E-01  0.918E-01
   8.085  0.286E+00  0.953E-01  0.953E-01  0.953E-01
   8.135  0.297E+00  0.990E-01  0.990E-01  0.990E-01
   8.185  0.309E+00  0.103E+00  0.103E+00  0.103E+00
   8.235  0.321E+00  0.107E+00  0.107E+00  0.107E+00
   8.285  0.334E+00  0.111E+00  0.111E+00  0.111E+00
   8.335  0.345E+00  0.115E+00  0.115E+00  0.115E+00
   8.385  0.356E+00  0.119E+00  0.119E+00  0.119E+00
   8.435  0.365E+00  0.122E+00  0.122E+00  0.122E+00
   8.485  0.373E+00  0.124E+00  0.124E+00  0.124E+00
   8.535  0.381E+00  0.127E+00  0.127E+00  0.127E+00
   8.585  0.391E+00  0.130E+00  0.130E+00  0.130E+00
   8.635  0.401E+00  0.134E+00  0.134E+00  0.134E+00
   8.685  0.412E+00  0.137E+00  0.137E+00  0.137E+00
   8.735  0.422E+00  0.141E+00  0.141E+00  0.141E+00
   8.785  0.429E+00  0.143E+00  0.143E+00  0.143E+00
   8.835  0.431E+00  0.144E+00  0.144E+00  0.144E+00
   8.885  0.427E+00  0.142E+00  0.142E+00  0.142E+00
   8.935  0.418E+00  0.139E+00  0.139E+00  0.139E+00
   8.985  0.406E+00  0.135E+00  0.135E+00  0.135E+00
   9.035  0.396E+00  0.132E+00  0.132E+00  0.132E+00
   9.085  0.390E+00  0.130E+00  0.130E+00  0.130E+00
   9.135  0.394E+00  0.131E+00  0.131E+00  0.131E+00
   9.185  0.407E+00  0.136E+00  0.136E+00  0.136E+00
   9.235  0.429E+00  0.143E+00  0.143E+00  0.143E+00
   9.285  0.458E+00  0.153E+00  0.153E+00  0.153E+00
   9.335  0.491E+00  0.164E+00  0.164E+00  0.164E+00
   9.385  0.522E+00  0.174E+00  0.174E+00  0.174E+00
   9.435  0.550E+00  0.183E+00  0.183E+00  0.183E+00
   9.485  0.572E+00  0.191E+00  0.191E+00  0.191E+00
   9.535  0.586E+00  0.195E+00  0.195E+00  0.195E+00
   9.585  0.594E+00  0.198E+00  0.198E+00  0.198E+00
   9.635  0.594E+00  0.198E+00  0.198E+00  0.198E+00
   9.685  0.588E+00  0.196E+00  0.196E+00  0.196E+00
   9.735  0.576E+00  0.192E+00  0.192E+00  0.192E+00
   9.785  0.557E+00  0.186E+00  0.186E+00  0.186E+00
   9.835  0.533E+00  0.178E+00  0.178E+00  0.178E+00
   9.885  0.505E+00  0.168E+00  0.168E+00  0.168E+00
   9.935  0.475E+00  0.158E+00  0.158E+00  0.158E+00
   9.985  0.445E+00  0.148E+00  0.148E+00  0.148E+00
  10.035  0.420E+00  0.140E+00  0.140E+00  0.140E+00
  10.085  0.402E+00  0.134E+00  0.134E+00  0.134E+00
  10.135  0.392E+00  0.131E+00  0.131E+00  0.131E+00
  10.185  0.390E+00  0.130E+00  0.130E+00  0.130E+00
  10.235  0.395E+00  0.132E+00  0.132E+00  0.132E+00
  10.285  0.403E+00  0.134E+00  0.134E+00  0.134E+00
  10.335  0.411E+00  0.137E+00  0.137E+00  0.137E+00
  10.385  0.418E+00  0.139E+00  0.139E+00  0.139E+00
  10.435  0.421E+00  0.140E+00  0.140E+00  0.140E+00
  10.485  0.421E+00  0.140E+00  0.140E+00  0.140E+00
  10.535  0.420E+00  0.140E+00  0.140E+00  0.140E+00
  10.585  0.420E+00  0.140E+00  0.140E+00  0.140E+00
  10.635  0.421E+00  0.140E+00  0.140E+00  0.140E+00
  10.685  0.422E+00  0.141E+00  0.141E+00  0.141E+00
  10.735  0.424E+00  0.141E+00  0.141E+00  0.141E+00
  10.785  0.423E+00  0.141E+00  0.141E+00  0.141E+00
  10.835  0.417E+00  0.139E+00  0.139E+00  0.139E+00
  10.885  0.407E+00  0.136E+00  0.136E+00  0.136E+00
  10.935  0.393E+00  0.131E+00  0.131E+00  0.131E+00
  10.985  0.376E+00  0.125E+00  0.125E+00  0.125E+00
  11.035  0.357E+00  0.119E+00  0.119E+00  0.119E+00
  11.085  0.337E+00  0.112E+00  0.112E+00  0.112E+00
  11.135  0.318E+00  0.106E+00  0.106E+00  0.106E+00
  11.185  0.299E+00  0.998E-01  0.998E-01  0.998E-01
  11.235  0.282E+00  0.939E-01  0.939E-01  0.939E-01
  11.285  0.266E+00  0.885E-01  0.885E-01  0.885E-01
  11.335  0.252E+00  0.839E-01  0.839E-01  0.839E-01
  11.385  0.241E+00  0.803E-01  0.803E-01  0.803E-01
  11.435  0.234E+00  0.780E-01  0.780E-01  0.780E-01
  11.485  0.231E+00  0.771E-01  0.771E-01  0.771E-01
  11.535  0.232E+00  0.774E-01  0.774E-01  0.774E-01
  11.585  0.236E+00  0.787E-01  0.787E-01  0.787E-01
  11.635  0.243E+00  0.809E-01  0.809E-01  0.809E-01
  11.685  0.251E+00  0.838E-01  0.838E-01  0.838E-01
  11.735  0.262E+00  0.874E-01  0.874E-01  0.874E-01
  11.785  0.275E+00  0.917E-01  0.917E-01  0.917E-01
  11.835  0.290E+00  0.968E-01  0.968E-01  0.968E-01
  11.885  0.307E+00  0.102E+00  0.102E+00  0.102E+00
  11.935  0.324E+00  0.108E+00  0.108E+00  0.108E+00
  11.985  0.340E+00  0.113E+00  0.113E+00  0.113E+00
  12.035  0.353E+00  0.118E+00  0.118E+00  0.118E+00
  12.085  0.362E+00  0.121E+00  0.121E+00  0.121E+00
  12.135  0.365E+00  0.122E+00  0.122E+00  0.122E+00
  12.185  0.362E+00  0.121E+00  0.121E+00  0.121E+00
  12.235  0.352E+00  0.117E+00  0.117E+00  0.117E+00
  12.285  0.336E+00  0.112E+00  0.112E+00  0.112E+00
  12.335  0.314E+00  0.105E+00  0.105E+00  0.105E+00
  12.385  0.289E+00  0.962E-01  0.962E-01  0.962E-01
  12.435  0.262E+00  0.873E-01  0.873E-01  0.873E-01
  12.485  0.236E+00  0.788E-01  0.788E-01  0.788E-01
  12.535  0.214E+00  0.713E-01  0.713E-01  0.713E-01
  12.585  0.196E+00  0.652E-01  0.652E-01  0.652E-01
  12.635  0.183E+00  0.609E-01  0.609E-01  0.609E-01
  12.685  0.175E+00  0.582E-01  0.582E-01  0.582E-01
  12.735  0.170E+00  0.568E-01  0.568E-01  0.568E-01
  12.785  0.169E+00  0.562E-01  0.562E-01  0.562E-01
  12.835  0.168E+00  0.560E-01  0.560E-01  0.560E-01
  12.885  0.167E+00  0.558E-01  0.558E-01  0.558E-01
  12.935  0.167E+00  0.555E-01  0.555E-01  0.555E-01
  12.985  0.165E+00  0.551E-01  0.551E-01  0.551E-01
  13.035  0.165E+00  0.549E-01  0.549E-01  0.549E-01
  13.085  0.166E+00  0.553E-01  0.553E-01  0.553E-01
  13.135  0.170E+00  0.566E-01  0.566E-01  0.566E-01
  13.185  0.177E+00  0.589E-01  0.589E-01  0.589E-01
  13.235  0.187E+00  0.624E-01  0.624E-01  0.624E-01
  13.285  0.200E+00  0.668E-01  0.668E-01  0.668E-01
  13.335  0.216E+00  0.720E-01  0.720E-01  0.720E-01
  13.385  0.233E+00  0.777E-01  0.777E-01  0.777E-01
  13.435  0.252E+00  0.839E-01  0.839E-01  0.839E-01
  13.485  0.270E+00  0.901E-01  0.901E-01  0.901E-01
  13.535  0.288E+00  0.961E-01  0.961E-01  0.961E-01
  13.585  0.303E+00  0.101E+00  0.101E+00  0.101E+00
  13.635  0.313E+00  0.104E+00  0.104E+00  0.104E+00
  13.685  0.315E+00  0.105E+00  0.105E+00  0.105E+00
  13.735  0.307E+00  0.102E+00  0.102E+00  0.102E+00
  13.785  0.289E+00  0.964E-01  0.964E-01  0.964E-01
  13.835  0.265E+00  0.882E-01  0.882E-01  0.882E-01
  13.885  0.236E+00  0.786E-01  0.786E-01  0.786E-01
  13.935  0.207E+00  0.691E-01  0.691E-01  0.691E-01
  13.985  0.183E+00  0.609E-01  0.609E-01  0.609E-01
  14.035  0.164E+00  0.548E-01  0.548E-01  0.548E-01
  14.085  0.153E+00  0.510E-01  0.510E-01  0.510E-01
  14.135  0.147E+00  0.491E-01  0.491E-01  0.491E-01
  14.185  0.145E+00  0.484E-01  0.484E-01  0.484E-01
  14.235  0.144E+00  0.481E-01  0.481E-01  0.481E-01
  14.285  0.142E+00  0.475E-01  0.475E-01  0.475E-01
  14.335  0.139E+00  0.464E-01  0.464E-01  0.464E-01
  14.385  0.134E+00  0.447E-01  0.447E-01  0.447E-01
  14.435  0.128E+00  0.427E-01  0.427E-01  0.427E-01
  14.485  0.122E+00  0.408E-01  0.408E-01  0.408E-01
  14.535  0.118E+00  0.394E-01  0.394E-01  0.394E-01
  14.585  0.116E+00  0.387E-01  0.387E-01  0.387E-01
  14.635  0.117E+00  0.391E-01  0.391E-01  0.391E-01
  14.685  0.122E+00  0.405E-01  0.405E-01  0.405E-01
  14.735  0.129E+00  0.430E-01  0.430E-01  0.430E-01
  14.785  0.139E+00  0.463E-01  0.463E-01  0.463E-01
  14.835  0.151E+00  0.502E-01  0.502E-01  0.502E-01
  14.885  0.163E+00  0.543E-01  0.543E-01  0.543E-01
  14.935  0.175E+00  0.584E-01  0.584E-01  0.584E-01
  14.985  0.186E+00  0.619E-01  0.619E-01  0.619E-01
  15.035  0.194E+00  0.647E-01  0.647E-01  0.647E-01
