#  E (eV)   dos(E)     Int dos(E) EFermi =    6.220 eV
 -15.000  0.1249E-83  0.2498E-85
 -14.980  0.1249E-83  0.4997E-85
 -14.960  0.1249E-83  0.7495E-85
 -14.940  0.1249E-83  0.9994E-85
 -14.920  0.1249E-83  0.1249E-84
 -14.900  0.1249E-83  0.1499E-84
 -14.880  0.1249E-83  0.1749E-84
 -14.860  0.1249E-83  0.1999E-84
 -14.840  0.1249E-83  0.2249E-84
 -14.820  0.1249E-83  0.2498E-84
 -14.800  0.1249E-83  0.2748E-84
 -14.780  0.1249E-83  0.2998E-84
 -14.760  0.1249E-83  0.3248E-84
 -14.740  0.1249E-83  0.3498E-84
 -14.720  0.1249E-83  0.3748E-84
 -14.700  0.1249E-83  0.3998E-84
 -14.680  0.1249E-83  0.4247E-84
 -14.660  0.1249E-83  0.4497E-84
 -14.640  0.1249E-83  0.4747E-84
 -14.620  0.1249E-83  0.4997E-84
 -14.600  0.1249E-83  0.5247E-84
 -14.580  0.1249E-83  0.5497E-84
 -14.560  0.1249E-83  0.5747E-84
 -14.540  0.1249E-83  0.5996E-84
 -14.520  0.1249E-83  0.6246E-84
 -14.500  0.1249E-83  0.6496E-84
 -14.480  0.1249E-83  0.6746E-84
 -14.460  0.1249E-83  0.6996E-84
 -14.440  0.1249E-83  0.7246E-84
 -14.420  0.1249E-83  0.7495E-84
 -14.400  0.1249E-83  0.7745E-84
 -14.380  0.1249E-83  0.7995E-84
 -14.360  0.1249E-83  0.8245E-84
 -14.340  0.1249E-83  0.8495E-84
 -14.320  0.1249E-83  0.8745E-84
 -14.300  0.1249E-83  0.8995E-84
 -14.280  0.1249E-83  0.9244E-84
 -14.260  0.1249E-83  0.9494E-84
 -14.240  0.1249E-83  0.9744E-84
 -14.220  0.1249E-83  0.9994E-84
 -14.200  0.1249E-83  0.1024E-83
 -14.180  0.1249E-83  0.1049E-83
 -14.160  0.1249E-83  0.1074E-83
 -14.140  0.1249E-83  0.1099E-83
 -14.120  0.1249E-83  0.1124E-83
 -14.100  0.1249E-83  0.1149E-83
 -14.080  0.1249E-83  0.1174E-83
 -14.060  0.1249E-83  0.1199E-83
 -14.040  0.1249E-83  0.1224E-83
 -14.020  0.1249E-83  0.1249E-83
 -14.000  0.1249E-83  0.1274E-83
 -13.980  0.1249E-83  0.1299E-83
 -13.960  0.1249E-83  0.1324E-83
 -13.940  0.1249E-83  0.1349E-83
 -13.920  0.1249E-83  0.1374E-83
 -13.900  0.1249E-83  0.1399E-83
 -13.880  0.1249E-83  0.1424E-83
 -13.860  0.1249E-83  0.1449E-83
 -13.840  0.1249E-83  0.1474E-83
 -13.820  0.1249E-83  0.1499E-83
 -13.800  0.1249E-83  0.1524E-83
 -13.780  0.1249E-83  0.1549E-83
 -13.760  0.1249E-83  0.1574E-83
 -13.740  0.1249E-83  0.1599E-83
 -13.720  0.1249E-83  0.1624E-83
 -13.700  0.1249E-83  0.1649E-83
 -13.680  0.1249E-83  0.1674E-83
 -13.660  0.1249E-83  0.1699E-83
 -13.640  0.1249E-83  0.1724E-83
 -13.620  0.1249E-83  0.1749E-83
 -13.600  0.1249E-83  0.1774E-83
 -13.580  0.1249E-83  0.1799E-83
 -13.560  0.1249E-83  0.1824E-83
 -13.540  0.1249E-83  0.1849E-83
 -13.520  0.1249E-83  0.1874E-83
 -13.500  0.1249E-83  0.1899E-83
 -13.480  0.1249E-83  0.1924E-83
 -13.460  0.1249E-83  0.1949E-83
 -13.440  0.1249E-83  0.1974E-83
 -13.420  0.1249E-83  0.1999E-83
 -13.400  0.1249E-83  0.2024E-83
 -13.380  0.1249E-83  0.2049E-83
 -13.360  0.1249E-83  0.2074E-83
 -13.340  0.1249E-83  0.2099E-83
 -13.320  0.1249E-83  0.2124E-83
 -13.300  0.1249E-83  0.2149E-83
 -13.280  0.1249E-83  0.2174E-83
 -13.260  0.1249E-83  0.2199E-83
 -13.240  0.1249E-83  0.2224E-83
 -13.220  0.1249E-83  0.2249E-83
 -13.200  0.1249E-83  0.2274E-83
 -13.180  0.1249E-83  0.2299E-83
 -13.160  0.1249E-83  0.2324E-83
 -13.140  0.1249E-83  0.2349E-83
 -13.120  0.1249E-83  0.2374E-83
 -13.100  0.1249E-83  0.2399E-83
 -13.080  0.1249E-83  0.2424E-83
 -13.060  0.1249E-83  0.2449E-83
 -13.040  0.1249E-83  0.2474E-83
 -13.020  0.1249E-83  0.2498E-83
 -13.000  0.1249E-83  0.2523E-83
 -12.980  0.1249E-83  0.2548E-83
 -12.960  0.1249E-83  0.2573E-83
 -12.940  0.1249E-83  0.2598E-83
 -12.920  0.1249E-83  0.2623E-83
 -12.900  0.1249E-83  0.2648E-83
 -12.880  0.1249E-83  0.2673E-83
 -12.860  0.1249E-83  0.2698E-83
 -12.840  0.1249E-83  0.2723E-83
 -12.820  0.1249E-83  0.2748E-83
 -12.800  0.1249E-83  0.2773E-83
 -12.780  0.1249E-83  0.2798E-83
 -12.760  0.1249E-83  0.2823E-83
 -12.740  0.1249E-83  0.2848E-83
 -12.720  0.1249E-83  0.2873E-83
 -12.700  0.1249E-83  0.2898E-83
 -12.680  0.1249E-83  0.2923E-83
 -12.660  0.1249E-83  0.2948E-83
 -12.640  0.1249E-83  0.2973E-83
 -12.620  0.1249E-83  0.2998E-83
 -12.600  0.1249E-83  0.3023E-83
 -12.580  0.1249E-83  0.3048E-83
 -12.560  0.1249E-83  0.3073E-83
 -12.540  0.1249E-83  0.3098E-83
 -12.520  0.1249E-83  0.3123E-83
 -12.500  0.1249E-83  0.3148E-83
 -12.480  0.1249E-83  0.3173E-83
 -12.460  0.1249E-83  0.3198E-83
 -12.440  0.1249E-83  0.3223E-83
 -12.420  0.1249E-83  0.3248E-83
 -12.400  0.1249E-83  0.3273E-83
 -12.380  0.1249E-83  0.3298E-83
 -12.360  0.1249E-83  0.3323E-83
 -12.340  0.1249E-83  0.3348E-83
 -12.320  0.1249E-83  0.3373E-83
 -12.300  0.1249E-83  0.3398E-83
 -12.280  0.1249E-83  0.3423E-83
 -12.260  0.1249E-83  0.3448E-83
 -12.240  0.1249E-83  0.3473E-83
 -12.220  0.1249E-83  0.3498E-83
 -12.200  0.1249E-83  0.3523E-83
 -12.180  0.1249E-83  0.3548E-83
 -12.160  0.1249E-83  0.3573E-83
 -12.140  0.1249E-83  0.3598E-83
 -12.120  0.1249E-83  0.3623E-83
 -12.100  0.1249E-83  0.3648E-83
 -12.080  0.1249E-83  0.3673E-83
 -12.060  0.1249E-83  0.3698E-83
 -12.040  0.1249E-83  0.3723E-83
 -12.020  0.1249E-83  0.3748E-83
 -12.000  0.1249E-83  0.3773E-83
 -11.980  0.1249E-83  0.3798E-83
 -11.960  0.1249E-83  0.3823E-83
 -11.940  0.1249E-83  0.3848E-83
 -11.920  0.1249E-83  0.3873E-83
 -11.900  0.1249E-83  0.3898E-83
 -11.880  0.1249E-83  0.3923E-83
 -11.860  0.1249E-83  0.3948E-83
 -11.840  0.1249E-83  0.3973E-83
 -11.820  0.1249E-83  0.3998E-83
 -11.800  0.1249E-83  0.4023E-83
 -11.780  0.1249E-83  0.4048E-83
 -11.760  0.1249E-83  0.4073E-83
 -11.740  0.1249E-83  0.4098E-83
 -11.720  0.1249E-83  0.4123E-83
 -11.700  0.1249E-83  0.4148E-83
 -11.680  0.1249E-83  0.4172E-83
 -11.660  0.1249E-83  0.4197E-83
 -11.640  0.1249E-83  0.4222E-83
 -11.620  0.1249E-83  0.4247E-83
 -11.600  0.1249E-83  0.4272E-83
 -11.580  0.1249E-83  0.4297E-83
 -11.560  0.1249E-83  0.4322E-83
 -11.540  0.1249E-83  0.4347E-83
 -11.520  0.1249E-83  0.4372E-83
 -11.500  0.1249E-83  0.4397E-83
 -11.480  0.1249E-83  0.4422E-83
 -11.460  0.1249E-83  0.4447E-83
 -11.440  0.1249E-83  0.4472E-83
 -11.420  0.1249E-83  0.4497E-83
 -11.400  0.1249E-83  0.4522E-83
 -11.380  0.1249E-83  0.4547E-83
 -11.360  0.1249E-83  0.4572E-83
 -11.340  0.1249E-83  0.4597E-83
 -11.320  0.1249E-83  0.4622E-83
 -11.300  0.1249E-83  0.4647E-83
 -11.280  0.1249E-83  0.4672E-83
 -11.260  0.1249E-83  0.4697E-83
 -11.240  0.1249E-83  0.4722E-83
 -11.220  0.1249E-83  0.4747E-83
 -11.200  0.1249E-83  0.4772E-83
 -11.180  0.1249E-83  0.4797E-83
 -11.160  0.1249E-83  0.4822E-83
 -11.140  0.1249E-83  0.4847E-83
 -11.120  0.1249E-83  0.4872E-83
 -11.100  0.1249E-83  0.4897E-83
 -11.080  0.1249E-83  0.4922E-83
 -11.060  0.1249E-83  0.4947E-83
 -11.040  0.1249E-83  0.4972E-83
 -11.020  0.1249E-83  0.4997E-83
 -11.000  0.1249E-83  0.5022E-83
 -10.980  0.1249E-83  0.5047E-83
 -10.960  0.1249E-83  0.5072E-83
 -10.940  0.1249E-83  0.5097E-83
 -10.920  0.1249E-83  0.5122E-83
 -10.900  0.1249E-83  0.5147E-83
 -10.880  0.1249E-83  0.5172E-83
 -10.860  0.1249E-83  0.5197E-83
 -10.840  0.1249E-83  0.5222E-83
 -10.820  0.1249E-83  0.5247E-83
 -10.800  0.1249E-83  0.5272E-83
 -10.780  0.1249E-83  0.5297E-83
 -10.760  0.1249E-83  0.5322E-83
 -10.740  0.1249E-83  0.5347E-83
 -10.720  0.1249E-83  0.5372E-83
 -10.700  0.1249E-83  0.5397E-83
 -10.680  0.1249E-83  0.5422E-83
 -10.660  0.1249E-83  0.5447E-83
 -10.640  0.1249E-83  0.5472E-83
 -10.620  0.1249E-83  0.5497E-83
 -10.600  0.1249E-83  0.5522E-83
 -10.580  0.1249E-83  0.5547E-83
 -10.560  0.1249E-83  0.5572E-83
 -10.540  0.1249E-83  0.5597E-83
 -10.520  0.1249E-83  0.5622E-83
 -10.500  0.1249E-83  0.5647E-83
 -10.480  0.1249E-83  0.5672E-83
 -10.460  0.1249E-83  0.5697E-83
 -10.440  0.1249E-83  0.5722E-83
 -10.420  0.1249E-83  0.5747E-83
 -10.400  0.1249E-83  0.5772E-83
 -10.380  0.1249E-83  0.5797E-83
 -10.360  0.1249E-83  0.5821E-83
 -10.340  0.1249E-83  0.5846E-83
 -10.320  0.1249E-83  0.5871E-83
 -10.300  0.1249E-83  0.5896E-83
 -10.280  0.1249E-83  0.5921E-83
 -10.260  0.1249E-83  0.5946E-83
 -10.240  0.1249E-83  0.5971E-83
 -10.220  0.1249E-83  0.5996E-83
 -10.200  0.1249E-83  0.6021E-83
 -10.180  0.1249E-83  0.6046E-83
 -10.160  0.1249E-83  0.6071E-83
 -10.140  0.1249E-83  0.6096E-83
 -10.120  0.1249E-83  0.6121E-83
 -10.100  0.1249E-83  0.6146E-83
 -10.080  0.1249E-83  0.6171E-83
 -10.060  0.1249E-83  0.6196E-83
 -10.040  0.1249E-83  0.6221E-83
 -10.020  0.1249E-83  0.6246E-83
 -10.000  0.1249E-83  0.6271E-83
  -9.980  0.1249E-83  0.6296E-83
  -9.960  0.1249E-83  0.6321E-83
  -9.940  0.1249E-83  0.6346E-83
  -9.920  0.1249E-83  0.6371E-83
  -9.900  0.1249E-83  0.6396E-83
  -9.880  0.1249E-83  0.6421E-83
  -9.860  0.1249E-83  0.6446E-83
  -9.840  0.1249E-83  0.6471E-83
  -9.820  0.1249E-83  0.6496E-83
  -9.800  0.1249E-83  0.6521E-83
  -9.780  0.1249E-83  0.6546E-83
  -9.760  0.1249E-83  0.6571E-83
  -9.740  0.1249E-83  0.6596E-83
  -9.720  0.1249E-83  0.6621E-83
  -9.700  0.1249E-83  0.6646E-83
  -9.680  0.1249E-83  0.6671E-83
  -9.660  0.1249E-83  0.6696E-83
  -9.640  0.1249E-83  0.6721E-83
  -9.620  0.1249E-83  0.6746E-83
  -9.600  0.1249E-83  0.6771E-83
  -9.580  0.1249E-83  0.6796E-83
  -9.560  0.1249E-83  0.6821E-83
  -9.540  0.1249E-83  0.6846E-83
  -9.520  0.1249E-83  0.6871E-83
  -9.500  0.1249E-83  0.6896E-83
  -9.480  0.1249E-83  0.6921E-83
  -9.460  0.1249E-83  0.6946E-83
  -9.440  0.1249E-83  0.6971E-83
  -9.420  0.1249E-83  0.6996E-83
  -9.400  0.1249E-83  0.7021E-83
  -9.380  0.1249E-83  0.7046E-83
  -9.360  0.1249E-83  0.7071E-83
  -9.340  0.1249E-83  0.7096E-83
  -9.320  0.1249E-83  0.7121E-83
  -9.300  0.1249E-83  0.7146E-83
  -9.280  0.1249E-83  0.7171E-83
  -9.260  0.1249E-83  0.7196E-83
  -9.240  0.1249E-83  0.7221E-83
  -9.220  0.1249E-83  0.7246E-83
  -9.200  0.1249E-83  0.7271E-83
  -9.180  0.1249E-83  0.7296E-83
  -9.160  0.1249E-83  0.7321E-83
  -9.140  0.1249E-83  0.7346E-83
  -9.120  0.1249E-83  0.7371E-83
  -9.100  0.1249E-83  0.7396E-83
  -9.080  0.1249E-83  0.7421E-83
  -9.060  0.1249E-83  0.7446E-83
  -9.040  0.1249E-83  0.7471E-83
  -9.020  0.1249E-83  0.7495E-83
  -9.000  0.1249E-83  0.7520E-83
  -8.980  0.1249E-83  0.7545E-83
  -8.960  0.1249E-83  0.7570E-83
  -8.940  0.1249E-83  0.7595E-83
  -8.920  0.1249E-83  0.7620E-83
  -8.900  0.1249E-83  0.7645E-83
  -8.880  0.1249E-83  0.7670E-83
  -8.860  0.1249E-83  0.7695E-83
  -8.840  0.1249E-83  0.7720E-83
  -8.820  0.1249E-83  0.7745E-83
  -8.800  0.1249E-83  0.7770E-83
  -8.780  0.1249E-83  0.7795E-83
  -8.760  0.1249E-83  0.7820E-83
  -8.740  0.1249E-83  0.7845E-83
  -8.720  0.1249E-83  0.7870E-83
  -8.700  0.1249E-83  0.7895E-83
  -8.680  0.1249E-83  0.7920E-83
  -8.660  0.1249E-83  0.7945E-83
  -8.640  0.1249E-83  0.7970E-83
  -8.620  0.1249E-83  0.7995E-83
  -8.600  0.1249E-83  0.8020E-83
  -8.580  0.1249E-83  0.8045E-83
  -8.560  0.1249E-83  0.8070E-83
  -8.540  0.1249E-83  0.8095E-83
  -8.520  0.1249E-83  0.8120E-83
  -8.500  0.1249E-83  0.8145E-83
  -8.480  0.1249E-83  0.8170E-83
  -8.460  0.1249E-83  0.8195E-83
  -8.440  0.1249E-83  0.8220E-83
  -8.420  0.1249E-83  0.8245E-83
  -8.400  0.1249E-83  0.8270E-83
  -8.380  0.1249E-83  0.8295E-83
  -8.360  0.1249E-83  0.8320E-83
  -8.340  0.1249E-83  0.8345E-83
  -8.320  0.1249E-83  0.8370E-83
  -8.300  0.1249E-83  0.8395E-83
  -8.280  0.1249E-83  0.8420E-83
  -8.260  0.1249E-83  0.8445E-83
  -8.240  0.1249E-83  0.8470E-83
  -8.220  0.1249E-83  0.8495E-83
  -8.200  0.1249E-83  0.8520E-83
  -8.180  0.1249E-83  0.8545E-83
  -8.160  0.1249E-83  0.8570E-83
  -8.140  0.1249E-83  0.8595E-83
  -8.120  0.1249E-83  0.8620E-83
  -8.100  0.1249E-83  0.8645E-83
  -8.080  0.1249E-83  0.8670E-83
  -8.060  0.1249E-83  0.8695E-83
  -8.040  0.1249E-83  0.8720E-83
  -8.020  0.1249E-83  0.8745E-83
  -8.000  0.1249E-83  0.8770E-83
  -7.980  0.1249E-83  0.8795E-83
  -7.960  0.1249E-83  0.8820E-83
  -7.940  0.1249E-83  0.8845E-83
  -7.920  0.1249E-83  0.8870E-83
  -7.900  0.1249E-83  0.8895E-83
  -7.880  0.1249E-83  0.8920E-83
  -7.860  0.1249E-83  0.8945E-83
  -7.840  0.1249E-83  0.8970E-83
  -7.820  0.1249E-83  0.8995E-83
  -7.800  0.1249E-83  0.9020E-83
  -7.780  0.1249E-83  0.9045E-83
  -7.760  0.1249E-83  0.9070E-83
  -7.740  0.1249E-83  0.9095E-83
  -7.720  0.1249E-83  0.9120E-83
  -7.700  0.1249E-83  0.9144E-83
  -7.680  0.1249E-83  0.9169E-83
  -7.660  0.1249E-83  0.9194E-83
  -7.640  0.1249E-83  0.9219E-83
  -7.620  0.1249E-83  0.9244E-83
  -7.600  0.1249E-83  0.9269E-83
  -7.580  0.1249E-83  0.9294E-83
  -7.560  0.1249E-83  0.9319E-83
  -7.540  0.1249E-83  0.9344E-83
  -7.520  0.1249E-83  0.9369E-83
  -7.500  0.1249E-83  0.9394E-83
  -7.480  0.1249E-83  0.9419E-83
  -7.460  0.1249E-83  0.9444E-83
  -7.440  0.1249E-83  0.9469E-83
  -7.420  0.1249E-83  0.9494E-83
  -7.400  0.1249E-83  0.9519E-83
  -7.380  0.1249E-83  0.9544E-83
  -7.360  0.1249E-83  0.9569E-83
  -7.340  0.1249E-83  0.9594E-83
  -7.320  0.1249E-83  0.9619E-83
  -7.300  0.1249E-83  0.9644E-83
  -7.280  0.1249E-83  0.9669E-83
  -7.260  0.1249E-83  0.9694E-83
  -7.240  0.1249E-83  0.9719E-83
  -7.220  0.1249E-83  0.9744E-83
  -7.200  0.1249E-83  0.9769E-83
  -7.180  0.1249E-83  0.9794E-83
  -7.160  0.1249E-83  0.9819E-83
  -7.140  0.1249E-83  0.9844E-83
  -7.120  0.1249E-83  0.9869E-83
  -7.100  0.1249E-83  0.9894E-83
  -7.080  0.1249E-83  0.9919E-83
  -7.060  0.1249E-83  0.9944E-83
  -7.040  0.1249E-83  0.9969E-83
  -7.020  0.1249E-83  0.9994E-83
  -7.000  0.1249E-83  0.1002E-82
  -6.980  0.1249E-83  0.1004E-82
  -6.960  0.1249E-83  0.1007E-82
  -6.940  0.1249E-83  0.1009E-82
  -6.920  0.1249E-83  0.1012E-82
  -6.900  0.1249E-83  0.1014E-82
  -6.880  0.1249E-83  0.1017E-82
  -6.860  0.1249E-83  0.1019E-82
  -6.840  0.1249E-83  0.1022E-82
  -6.820  0.1249E-83  0.1024E-82
  -6.800  0.1249E-83  0.1027E-82
  -6.780  0.1249E-83  0.1029E-82
  -6.760  0.1249E-83  0.1032E-82
  -6.740  0.1249E-83  0.1034E-82
  -6.720  0.1249E-83  0.1037E-82
  -6.700  0.1249E-83  0.1039E-82
  -6.680  0.1249E-83  0.1042E-82
  -6.660  0.1249E-83  0.1044E-82
  -6.640  0.1249E-83  0.1047E-82
  -6.620  0.1249E-83  0.1049E-82
  -6.600  0.1249E-83  0.1052E-82
  -6.580  0.1249E-83  0.1054E-82
  -6.560  0.1249E-83  0.1057E-82
  -6.540  0.1249E-83  0.1059E-82
  -6.520  0.1249E-83  0.1062E-82
  -6.500  0.1249E-83  0.1064E-82
  -6.480  0.1249E-83  0.1067E-82
  -6.460  0.1249E-83  0.1069E-82
  -6.440  0.1249E-83  0.1072E-82
  -6.420  0.1249E-83  0.1074E-82
  -6.400  0.1249E-83  0.1077E-82
  -6.380  0.1249E-83  0.1079E-82
  -6.360  0.1249E-83  0.1082E-82
  -6.340  0.1249E-83  0.1084E-82
  -6.320  0.1249E-83  0.1087E-82
  -6.300  0.1249E-83  0.1089E-82
  -6.280  0.1249E-83  0.1092E-82
  -6.260  0.1249E-83  0.1094E-82
  -6.240  0.1249E-83  0.1097E-82
  -6.220  0.1249E-83  0.1099E-82
  -6.200  0.1249E-83  0.1102E-82
  -6.180  0.1249E-83  0.1104E-82
  -6.160  0.1249E-83  0.1107E-82
  -6.140  0.1249E-83  0.1109E-82
  -6.120  0.1249E-83  0.1112E-82
  -6.100  0.1249E-83  0.1114E-82
  -6.080  0.1249E-83  0.1117E-82
  -6.060  0.1249E-83  0.1119E-82
  -6.040  0.1249E-83  0.1122E-82
  -6.020  0.5296E-81  0.2181E-82
  -6.000  0.1153E-69  0.2307E-71
  -5.980  0.3407E-59  0.6814E-61
  -5.960  0.1362E-49  0.2724E-51
  -5.940  0.7371E-41  0.1474E-42
  -5.920  0.5397E-33  0.1079E-34
  -5.900  0.5349E-26  0.1070E-27
  -5.880  0.7174E-20  0.1435E-21
  -5.860  0.1302E-14  0.2604E-16
  -5.840  0.3199E-10  0.6397E-12
  -5.820  0.1063E-06  0.2127E-08
  -5.800  0.4784E-04  0.9590E-06
  -5.780  0.2913E-02  0.5922E-04
  -5.760  0.2401E-01  0.5394E-03
  -5.740  0.2677E-01  0.1075E-02
  -5.720  0.4058E-02  0.1156E-02
  -5.700  0.3162E-02  0.1219E-02
  -5.680  0.7684E-01  0.2756E-02
  -5.660  0.2719E+00  0.8193E-02
  -5.640  0.2491E+00  0.1318E-01
  -5.620  0.1783E+00  0.1674E-01
  -5.600  0.3020E-01  0.1735E-01
  -5.580  0.7193E-03  0.1736E-01
  -5.560  0.3379E-03  0.1737E-01
  -5.540  0.2511E-01  0.1787E-01
  -5.520  0.2543E+00  0.2296E-01
  -5.500  0.3484E+00  0.2992E-01
  -5.480  0.6466E-01  0.3122E-01
  -5.460  0.8231E-02  0.3138E-01
  -5.440  0.1926E+00  0.3523E-01
  -5.420  0.7759E+00  0.5075E-01
  -5.400  0.5808E+00  0.6237E-01
  -5.380  0.2556E+00  0.6748E-01
  -5.360  0.3944E-01  0.6827E-01
  -5.340  0.9165E-03  0.6829E-01
  -5.320  0.9372E-04  0.6829E-01
  -5.300  0.8520E-02  0.6846E-01
  -5.280  0.1082E+00  0.7062E-01
  -5.260  0.1859E+00  0.7434E-01
  -5.240  0.4330E-01  0.7521E-01
  -5.220  0.1390E-01  0.7548E-01
  -5.200  0.2701E+00  0.8089E-01
  -5.180  0.8380E+00  0.9764E-01
  -5.160  0.8358E+00  0.1144E+00
  -5.140  0.6990E+00  0.1283E+00
  -5.120  0.1196E+00  0.1307E+00
  -5.100  0.2837E-02  0.1308E+00
  -5.080  0.2577E-02  0.1308E+00
  -5.060  0.1129E+00  0.1331E+00
  -5.040  0.6721E+00  0.1465E+00
  -5.020  0.5413E+00  0.1574E+00
  -5.000  0.5942E-01  0.1586E+00
  -4.980  0.3197E-01  0.1592E+00
  -4.960  0.4059E+00  0.1673E+00
  -4.940  0.9840E+00  0.1870E+00
  -4.920  0.4052E+00  0.1951E+00
  -4.900  0.2508E-01  0.1956E+00
  -4.880  0.2184E-03  0.1956E+00
  -4.860  0.3604E-04  0.1956E+00
  -4.840  0.5866E-02  0.1957E+00
  -4.820  0.1302E+00  0.1983E+00
  -4.800  0.3908E+00  0.2061E+00
  -4.780  0.1588E+00  0.2093E+00
  -4.760  0.1242E-01  0.2096E+00
  -4.740  0.1875E+00  0.2133E+00
  -4.720  0.1354E+01  0.2404E+00
  -4.700  0.1801E+01  0.2764E+00
  -4.680  0.8722E+00  0.2939E+00
  -4.660  0.2584E+00  0.2990E+00
  -4.640  0.3550E-01  0.2997E+00
  -4.620  0.9208E-03  0.2998E+00
  -4.600  0.6046E-02  0.2999E+00
  -4.580  0.1831E+00  0.3035E+00
  -4.560  0.7512E+00  0.3186E+00
  -4.540  0.4230E+00  0.3270E+00
  -4.520  0.2139E+00  0.3313E+00
  -4.500  0.7522E+00  0.3463E+00
  -4.480  0.4870E+00  0.3561E+00
  -4.460  0.6057E+00  0.3682E+00
  -4.440  0.6446E+00  0.3811E+00
  -4.420  0.9853E-01  0.3831E+00
  -4.400  0.3568E-01  0.3838E+00
  -4.380  0.2169E+00  0.3881E+00
  -4.360  0.1890E+00  0.3919E+00
  -4.340  0.2230E-01  0.3923E+00
  -4.320  0.1000E-02  0.3924E+00
  -4.300  0.4897E-01  0.3933E+00
  -4.280  0.5061E+00  0.4035E+00
  -4.260  0.8526E+00  0.4205E+00
  -4.240  0.1319E+01  0.4469E+00
  -4.220  0.1257E+01  0.4720E+00
  -4.200  0.1793E+00  0.4756E+00
  -4.180  0.1374E-01  0.4759E+00
  -4.160  0.3349E+00  0.4826E+00
  -4.140  0.1478E+01  0.5121E+00
  -4.120  0.9034E+00  0.5302E+00
  -4.100  0.4163E+00  0.5385E+00
  -4.080  0.7779E+00  0.5541E+00
  -4.060  0.2872E+00  0.5598E+00
  -4.040  0.7669E+00  0.5752E+00
  -4.020  0.1534E+01  0.6059E+00
  -4.000  0.4204E+00  0.6143E+00
  -3.980  0.1560E-01  0.6146E+00
  -3.960  0.7832E-04  0.6146E+00
  -3.940  0.3495E-05  0.6146E+00
  -3.920  0.1423E-02  0.6146E+00
  -3.900  0.7979E-01  0.6162E+00
  -3.880  0.6262E+00  0.6287E+00
  -3.860  0.1024E+01  0.6492E+00
  -3.840  0.1058E+01  0.6704E+00
  -3.820  0.3212E+00  0.6768E+00
  -3.800  0.1536E-01  0.6771E+00
  -3.780  0.6558E-01  0.6784E+00
  -3.760  0.6530E+00  0.6915E+00
  -3.740  0.9517E+00  0.7105E+00
  -3.720  0.3971E+00  0.7184E+00
  -3.700  0.3860E+00  0.7262E+00
  -3.680  0.2573E+00  0.7313E+00
  -3.660  0.1150E+01  0.7543E+00
  -3.640  0.2235E+01  0.7990E+00
  -3.620  0.1706E+01  0.8331E+00
  -3.600  0.2918E+00  0.8390E+00
  -3.580  0.7602E-02  0.8391E+00
  -3.560  0.6114E-02  0.8392E+00
  -3.540  0.2600E+00  0.8444E+00
  -3.520  0.1649E+01  0.8774E+00
  -3.500  0.1832E+01  0.9141E+00
  -3.480  0.6518E+00  0.9271E+00
  -3.460  0.7963E+00  0.9430E+00
  -3.440  0.3863E+00  0.9507E+00
  -3.420  0.5690E+00  0.9621E+00
  -3.400  0.1844E+01  0.9990E+00
  -3.380  0.1550E+01  0.1030E+01
  -3.360  0.3899E+00  0.1038E+01
  -3.340  0.8747E-01  0.1040E+01
  -3.320  0.5684E+00  0.1051E+01
  -3.300  0.6564E+00  0.1064E+01
  -3.280  0.2966E+00  0.1070E+01
  -3.260  0.7615E+00  0.1085E+01
  -3.240  0.3981E+00  0.1093E+01
  -3.220  0.3214E-01  0.1094E+01
  -3.200  0.1441E+00  0.1097E+01
  -3.180  0.7581E+00  0.1112E+01
  -3.160  0.1336E+01  0.1139E+01
  -3.140  0.2383E+01  0.1186E+01
  -3.120  0.9031E+00  0.1204E+01
  -3.100  0.3739E+00  0.1212E+01
  -3.080  0.7923E+00  0.1228E+01
  -3.060  0.6716E+00  0.1241E+01
  -3.040  0.2263E+01  0.1286E+01
  -3.020  0.2257E+01  0.1331E+01
  -3.000  0.5802E+00  0.1343E+01
  -2.980  0.3411E-01  0.1344E+01
  -2.960  0.4879E-03  0.1344E+01
  -2.940  0.2531E-01  0.1344E+01
  -2.920  0.5411E+00  0.1355E+01
  -2.900  0.1566E+01  0.1386E+01
  -2.880  0.6201E+00  0.1399E+01
  -2.860  0.3034E+00  0.1405E+01
  -2.840  0.1444E+01  0.1434E+01
  -2.820  0.1172E+01  0.1457E+01
  -2.800  0.2180E+00  0.1462E+01
  -2.780  0.1915E-01  0.1462E+01
  -2.760  0.1895E+00  0.1466E+01
  -2.740  0.7913E+00  0.1482E+01
  -2.720  0.8643E+00  0.1499E+01
  -2.700  0.1029E+01  0.1519E+01
  -2.680  0.9479E+00  0.1538E+01
  -2.660  0.3208E+00  0.1545E+01
  -2.640  0.1728E-01  0.1545E+01
  -2.620  0.1325E-03  0.1545E+01
  -2.600  0.2222E-02  0.1545E+01
  -2.580  0.1372E+00  0.1548E+01
  -2.560  0.1165E+01  0.1571E+01
  -2.540  0.1639E+01  0.1604E+01
  -2.520  0.1006E+01  0.1624E+01
  -2.500  0.9867E+00  0.1644E+01
  -2.480  0.2620E+01  0.1696E+01
  -2.460  0.1365E+01  0.1724E+01
  -2.440  0.1062E+00  0.1726E+01
  -2.420  0.1215E-02  0.1726E+01
  -2.400  0.2016E-05  0.1726E+01
  -2.380  0.4764E-09  0.1726E+01
  -2.360  0.1580E-13  0.1726E+01
  -2.340  0.5177E-13  0.1726E+01
  -2.320  0.1161E-08  0.1726E+01
  -2.300  0.3524E-05  0.1726E+01
  -2.280  0.1450E-02  0.1726E+01
  -2.260  0.8181E-01  0.1727E+01
  -2.240  0.6940E+00  0.1741E+01
  -2.220  0.1486E+01  0.1771E+01
  -2.200  0.1495E+01  0.1801E+01
  -2.180  0.3911E+00  0.1809E+01
  -2.160  0.1850E-01  0.1809E+01
  -2.140  0.9493E-01  0.1811E+01
  -2.120  0.9939E+00  0.1831E+01
  -2.100  0.1410E+01  0.1859E+01
  -2.080  0.2707E+00  0.1864E+01
  -2.060  0.7141E-02  0.1865E+01
  -2.040  0.1945E-01  0.1865E+01
  -2.020  0.4721E+00  0.1874E+01
  -2.000  0.1555E+01  0.1906E+01
  -1.980  0.7914E+00  0.1921E+01
  -1.960  0.6904E+00  0.1935E+01
  -1.940  0.5695E+00  0.1947E+01
  -1.920  0.6758E-01  0.1948E+01
  -1.900  0.1086E-02  0.1948E+01
  -1.880  0.2362E-05  0.1948E+01
  -1.860  0.6950E-09  0.1948E+01
  -1.840  0.2499E-10  0.1948E+01
  -1.820  0.1484E-06  0.1948E+01
  -1.800  0.1195E-03  0.1948E+01
  -1.780  0.1301E-01  0.1948E+01
  -1.760  0.1918E+00  0.1952E+01
  -1.740  0.3825E+00  0.1960E+01
  -1.720  0.1033E+00  0.1962E+01
  -1.700  0.3773E-02  0.1962E+01
  -1.680  0.1871E-04  0.1962E+01
  -1.660  0.4647E-04  0.1962E+01
  -1.640  0.5524E-02  0.1962E+01
  -1.620  0.8918E-01  0.1964E+01
  -1.600  0.2243E+00  0.1968E+01
  -1.580  0.4707E+00  0.1978E+01
  -1.560  0.7549E+00  0.1993E+01
  -1.540  0.1855E+00  0.1996E+01
  -1.520  0.2768E-01  0.1997E+01
  -1.500  0.3510E+00  0.2004E+01
  -1.480  0.7799E+00  0.2020E+01
  -1.460  0.3471E+00  0.2027E+01
  -1.440  0.3968E+00  0.2034E+01
  -1.420  0.1761E+00  0.2038E+01
  -1.400  0.1087E-01  0.2038E+01
  -1.380  0.6513E-02  0.2038E+01
  -1.360  0.1363E+00  0.2041E+01
  -1.340  0.3915E+00  0.2049E+01
  -1.320  0.1522E+00  0.2052E+01
  -1.300  0.8006E-02  0.2052E+01
  -1.280  0.5700E-04  0.2052E+01
  -1.260  0.5492E-07  0.2052E+01
  -1.240  0.7161E-11  0.2052E+01
  -1.220  0.1264E-15  0.2052E+01
  -1.200  0.3018E-21  0.2052E+01
  -1.180  0.4728E-21  0.2052E+01
  -1.160  0.2050E-15  0.2052E+01
  -1.140  0.1203E-10  0.2052E+01
  -1.120  0.9555E-07  0.2052E+01
  -1.100  0.1027E-03  0.2052E+01
  -1.080  0.1494E-01  0.2052E+01
  -1.060  0.2941E+00  0.2058E+01
  -1.040  0.7835E+00  0.2074E+01
  -1.020  0.2825E+00  0.2080E+01
  -1.000  0.1384E-01  0.2080E+01
  -0.980  0.1442E-01  0.2080E+01
  -0.960  0.5526E+00  0.2091E+01
  -0.940  0.3163E+01  0.2154E+01
  -0.920  0.2810E+01  0.2211E+01
  -0.900  0.3954E+00  0.2219E+01
  -0.880  0.2886E-01  0.2219E+01
  -0.860  0.3412E+00  0.2226E+01
  -0.840  0.7775E+00  0.2242E+01
  -0.820  0.2398E+00  0.2246E+01
  -0.800  0.1125E-01  0.2247E+01
  -0.780  0.3413E-01  0.2247E+01
  -0.760  0.1277E+00  0.2250E+01
  -0.740  0.9627E-01  0.2252E+01
  -0.720  0.4246E+00  0.2260E+01
  -0.700  0.7535E+00  0.2275E+01
  -0.680  0.3559E+00  0.2282E+01
  -0.660  0.1243E+01  0.2307E+01
  -0.640  0.1799E+01  0.2343E+01
  -0.620  0.1128E+01  0.2366E+01
  -0.600  0.1877E+01  0.2403E+01
  -0.580  0.1994E+01  0.2443E+01
  -0.560  0.1408E+01  0.2471E+01
  -0.540  0.1942E+01  0.2510E+01
  -0.520  0.3195E+01  0.2574E+01
  -0.500  0.1331E+01  0.2601E+01
  -0.480  0.8038E+00  0.2617E+01
  -0.460  0.4866E+00  0.2627E+01
  -0.440  0.5548E+00  0.2638E+01
  -0.420  0.7976E+00  0.2654E+01
  -0.400  0.7882E+00  0.2669E+01
  -0.380  0.6419E+00  0.2682E+01
  -0.360  0.8569E+00  0.2699E+01
  -0.340  0.1880E+01  0.2737E+01
  -0.320  0.1280E+01  0.2763E+01
  -0.300  0.5259E+00  0.2773E+01
  -0.280  0.8122E+00  0.2789E+01
  -0.260  0.5457E+00  0.2800E+01
  -0.240  0.4026E+00  0.2808E+01
  -0.220  0.5636E+00  0.2820E+01
  -0.200  0.1622E+01  0.2852E+01
  -0.180  0.1291E+01  0.2878E+01
  -0.160  0.1712E+01  0.2912E+01
  -0.140  0.1519E+01  0.2942E+01
  -0.120  0.3331E+00  0.2949E+01
  -0.100  0.5658E+00  0.2960E+01
  -0.080  0.6576E+00  0.2974E+01
  -0.060  0.1049E+00  0.2976E+01
  -0.040  0.2274E-01  0.2976E+01
  -0.020  0.3430E+00  0.2983E+01
   0.000  0.7771E+00  0.2999E+01
   0.020  0.2383E+00  0.3003E+01
   0.040  0.9888E-02  0.3003E+01
   0.060  0.2616E-03  0.3003E+01
   0.080  0.2363E-01  0.3004E+01
   0.100  0.3668E+00  0.3011E+01
   0.120  0.7707E+00  0.3027E+01
   0.140  0.2238E+00  0.3031E+01
   0.160  0.2798E+00  0.3037E+01
   0.180  0.2328E+01  0.3083E+01
   0.200  0.3278E+01  0.3149E+01
   0.220  0.9886E+00  0.3169E+01
   0.240  0.7185E-01  0.3170E+01
   0.260  0.9629E-03  0.3170E+01
   0.280  0.1914E-05  0.3170E+01
   0.300  0.5266E-09  0.3170E+01
   0.320  0.1584E-10  0.3170E+01
   0.340  0.1189E-06  0.3170E+01
   0.360  0.1210E-03  0.3170E+01
   0.380  0.1665E-01  0.3170E+01
   0.400  0.3103E+00  0.3177E+01
   0.420  0.7825E+00  0.3192E+01
   0.440  0.2672E+00  0.3198E+01
   0.460  0.3335E-01  0.3198E+01
   0.480  0.3473E+00  0.3205E+01
   0.500  0.7883E+00  0.3221E+01
   0.520  0.6614E+00  0.3234E+01
   0.540  0.2180E+01  0.3278E+01
   0.560  0.2017E+01  0.3318E+01
   0.580  0.8133E+00  0.3334E+01
   0.600  0.1135E+00  0.3337E+01
   0.620  0.2516E-02  0.3337E+01
   0.640  0.7664E-05  0.3337E+01
   0.660  0.2637E-06  0.3337E+01
   0.680  0.1810E-03  0.3337E+01
   0.700  0.1711E-01  0.3337E+01
   0.720  0.2318E+00  0.3342E+01
   0.740  0.6731E+00  0.3355E+01
   0.760  0.8698E+00  0.3373E+01
   0.780  0.2783E+00  0.3378E+01
   0.800  0.1313E-01  0.3378E+01
   0.820  0.1148E-03  0.3378E+01
   0.840  0.4589E-02  0.3379E+01
   0.860  0.9410E-01  0.3380E+01
   0.880  0.2612E+00  0.3386E+01
   0.900  0.1090E+00  0.3388E+01
   0.920  0.3515E+00  0.3395E+01
   0.940  0.1488E+01  0.3425E+01
   0.960  0.8641E+00  0.3442E+01
   0.980  0.6933E-01  0.3443E+01
   1.000  0.7947E-01  0.3445E+01
   1.020  0.6005E+00  0.3457E+01
   1.040  0.6198E+00  0.3469E+01
   1.060  0.8658E-01  0.3471E+01
   1.080  0.1637E-02  0.3471E+01
   1.100  0.4187E-05  0.3471E+01
   1.120  0.3385E-08  0.3471E+01
   1.140  0.3816E-05  0.3471E+01
   1.160  0.1018E-02  0.3471E+01
   1.180  0.3681E-01  0.3472E+01
   1.200  0.1889E+00  0.3476E+01
   1.220  0.4320E+00  0.3484E+01
   1.240  0.1468E+01  0.3514E+01
   1.260  0.9186E+00  0.3532E+01
   1.280  0.7831E-01  0.3534E+01
   1.300  0.3147E-02  0.3534E+01
   1.320  0.1252E+00  0.3536E+01
   1.340  0.1043E+01  0.3557E+01
   1.360  0.1335E+01  0.3584E+01
   1.380  0.2643E+00  0.3589E+01
   1.400  0.7875E-02  0.3589E+01
   1.420  0.3406E-04  0.3589E+01
   1.440  0.2348E-07  0.3589E+01
   1.460  0.6849E-05  0.3589E+01
   1.480  0.2321E-02  0.3589E+01
   1.500  0.1065E+00  0.3591E+01
   1.520  0.6608E+00  0.3605E+01
   1.540  0.5551E+00  0.3616E+01
   1.560  0.6311E-01  0.3617E+01
   1.580  0.9710E-03  0.3617E+01
   1.600  0.2022E-05  0.3617E+01
   1.620  0.5698E-09  0.3617E+01
   1.640  0.2173E-13  0.3617E+01
   1.660  0.2125E-15  0.3617E+01
   1.680  0.1243E-10  0.3617E+01
   1.700  0.9908E-07  0.3617E+01
   1.720  0.1085E-03  0.3617E+01
   1.740  0.1675E-01  0.3617E+01
   1.760  0.3884E+00  0.3625E+01
   1.780  0.1586E+01  0.3657E+01
   1.800  0.1763E+01  0.3692E+01
   1.820  0.9534E+00  0.3711E+01
   1.840  0.1500E+00  0.3714E+01
   1.860  0.3831E-02  0.3714E+01
   1.880  0.1377E-04  0.3714E+01
   1.900  0.4393E-04  0.3714E+01
   1.920  0.8952E-02  0.3714E+01
   1.940  0.2800E+00  0.3720E+01
   1.960  0.1617E+01  0.3752E+01
   1.980  0.2274E+01  0.3798E+01
   2.000  0.1911E+01  0.3836E+01
   2.020  0.8058E+00  0.3852E+01
   2.040  0.2717E+00  0.3857E+01
   2.060  0.7701E+00  0.3873E+01
   2.080  0.3742E+00  0.3880E+01
   2.100  0.2062E+00  0.3884E+01
   2.120  0.1260E+01  0.3910E+01
   2.140  0.1180E+01  0.3933E+01
   2.160  0.1806E+00  0.3937E+01
   2.180  0.5606E+00  0.3948E+01
   2.200  0.1521E+01  0.3979E+01
   2.220  0.8663E+00  0.3996E+01
   2.240  0.1709E+01  0.4030E+01
   2.260  0.2665E+01  0.4083E+01
   2.280  0.2385E+01  0.4131E+01
   2.300  0.2955E+01  0.4190E+01
   2.320  0.1433E+01  0.4219E+01
   2.340  0.4184E+00  0.4227E+01
   2.360  0.7341E+00  0.4242E+01
   2.380  0.4271E+00  0.4250E+01
   2.400  0.4280E-01  0.4251E+01
   2.420  0.1836E+00  0.4255E+01
   2.440  0.1353E+01  0.4282E+01
   2.460  0.2418E+01  0.4330E+01
   2.480  0.1014E+01  0.4351E+01
   2.500  0.4391E+00  0.4359E+01
   2.520  0.1398E+00  0.4362E+01
   2.540  0.1130E+00  0.4364E+01
   2.560  0.8794E+00  0.4382E+01
   2.580  0.1360E+01  0.4409E+01
   2.600  0.6718E+00  0.4423E+01
   2.620  0.1581E+01  0.4454E+01
   2.640  0.1788E+01  0.4490E+01
   2.660  0.8437E+00  0.4507E+01
   2.680  0.1420E+01  0.4535E+01
   2.700  0.2065E+01  0.4577E+01
   2.720  0.1014E+01  0.4597E+01
   2.740  0.1493E+01  0.4627E+01
   2.760  0.1332E+01  0.4653E+01
   2.780  0.2179E+01  0.4697E+01
   2.800  0.1518E+01  0.4727E+01
   2.820  0.1486E+00  0.4730E+01
   2.840  0.1976E-02  0.4730E+01
   2.860  0.2921E-02  0.4730E+01
   2.880  0.1616E+00  0.4734E+01
   2.900  0.1212E+01  0.4758E+01
   2.920  0.1229E+01  0.4782E+01
   2.940  0.1708E+00  0.4786E+01
   2.960  0.1326E+00  0.4789E+01
   2.980  0.1121E+01  0.4811E+01
   3.000  0.1329E+01  0.4837E+01
   3.020  0.5467E+00  0.4848E+01
   3.040  0.1392E+01  0.4876E+01
   3.060  0.1897E+01  0.4914E+01
   3.080  0.1772E+01  0.4950E+01
   3.100  0.1804E+01  0.4986E+01
   3.120  0.1391E+01  0.5014E+01
   3.140  0.1047E+01  0.5034E+01
   3.160  0.8565E+00  0.5052E+01
   3.180  0.5520E+00  0.5063E+01
   3.200  0.3648E+00  0.5070E+01
   3.220  0.1812E+01  0.5106E+01
   3.240  0.2516E+01  0.5156E+01
   3.260  0.1495E+01  0.5186E+01
   3.280  0.1587E+01  0.5218E+01
   3.300  0.1815E+01  0.5254E+01
   3.320  0.1588E+01  0.5286E+01
   3.340  0.1630E+01  0.5319E+01
   3.360  0.1733E+01  0.5353E+01
   3.380  0.9528E+00  0.5373E+01
   3.400  0.2269E+00  0.5377E+01
   3.420  0.9720E+00  0.5396E+01
   3.440  0.2880E+01  0.5454E+01
   3.460  0.1868E+01  0.5491E+01
   3.480  0.1094E+01  0.5513E+01
   3.500  0.6873E+00  0.5527E+01
   3.520  0.1087E+00  0.5529E+01
   3.540  0.2417E+00  0.5534E+01
   3.560  0.1171E+01  0.5557E+01
   3.580  0.4030E+01  0.5638E+01
   3.600  0.3510E+01  0.5708E+01
   3.620  0.1355E+01  0.5735E+01
   3.640  0.1980E+01  0.5775E+01
   3.660  0.2914E+01  0.5833E+01
   3.680  0.7258E+00  0.5848E+01
   3.700  0.2777E-01  0.5848E+01
   3.720  0.3728E-03  0.5848E+01
   3.740  0.3516E-01  0.5849E+01
   3.760  0.8753E+00  0.5867E+01
   3.780  0.3872E+01  0.5944E+01
   3.800  0.4385E+01  0.6032E+01
   3.820  0.1890E+01  0.6070E+01
   3.840  0.7552E+00  0.6085E+01
   3.860  0.1003E+01  0.6105E+01
   3.880  0.1026E+01  0.6125E+01
   3.900  0.7548E+00  0.6140E+01
   3.920  0.8249E+00  0.6157E+01
   3.940  0.3680E+00  0.6164E+01
   3.960  0.5747E+00  0.6176E+01
   3.980  0.7368E+00  0.6190E+01
   4.000  0.7067E+00  0.6205E+01
   4.020  0.8045E+00  0.6221E+01
   4.040  0.1501E+01  0.6251E+01
   4.060  0.2864E+01  0.6308E+01
   4.080  0.3581E+01  0.6380E+01
   4.100  0.2014E+01  0.6420E+01
   4.120  0.6851E+00  0.6434E+01
   4.140  0.8021E+00  0.6450E+01
   4.160  0.3952E+00  0.6458E+01
   4.180  0.8019E+00  0.6474E+01
   4.200  0.9160E+00  0.6492E+01
   4.220  0.1225E+01  0.6516E+01
   4.240  0.1911E+01  0.6555E+01
   4.260  0.9604E+00  0.6574E+01
   4.280  0.1218E+01  0.6598E+01
   4.300  0.2276E+01  0.6644E+01
   4.320  0.1345E+01  0.6671E+01
   4.340  0.1187E+01  0.6694E+01
   4.360  0.1147E+01  0.6717E+01
   4.380  0.1244E+01  0.6742E+01
   4.400  0.5734E+00  0.6754E+01
   4.420  0.7739E+00  0.6769E+01
   4.440  0.1612E+01  0.6801E+01
   4.460  0.1098E+01  0.6823E+01
   4.480  0.1042E+01  0.6844E+01
   4.500  0.9673E+00  0.6863E+01
   4.520  0.9119E+00  0.6882E+01
   4.540  0.1099E+01  0.6904E+01
   4.560  0.2567E+01  0.6955E+01
   4.580  0.2655E+01  0.7008E+01
   4.600  0.1308E+01  0.7034E+01
   4.620  0.1468E+01  0.7064E+01
   4.640  0.2045E+01  0.7105E+01
   4.660  0.2437E+01  0.7153E+01
   4.680  0.2045E+01  0.7194E+01
   4.700  0.8035E+00  0.7210E+01
   4.720  0.7598E-01  0.7212E+01
   4.740  0.1156E-02  0.7212E+01
   4.760  0.1621E-02  0.7212E+01
   4.780  0.8720E-01  0.7214E+01
   4.800  0.7032E+00  0.7228E+01
   4.820  0.1453E+01  0.7257E+01
   4.840  0.1498E+01  0.7287E+01
   4.860  0.4749E+00  0.7296E+01
   4.880  0.8764E+00  0.7314E+01
   4.900  0.2739E+01  0.7368E+01
   4.920  0.2725E+01  0.7423E+01
   4.940  0.1934E+01  0.7462E+01
   4.960  0.8470E+00  0.7479E+01
   4.980  0.8018E+00  0.7495E+01
   5.000  0.6276E+00  0.7507E+01
   5.020  0.6711E+00  0.7521E+01
   5.040  0.3551E+00  0.7528E+01
   5.060  0.4605E+00  0.7537E+01
   5.080  0.4545E+00  0.7546E+01
   5.100  0.6573E+00  0.7559E+01
   5.120  0.6058E+00  0.7571E+01
   5.140  0.8055E-01  0.7573E+01
   5.160  0.1635E-02  0.7573E+01
   5.180  0.2362E-01  0.7573E+01
   5.200  0.4934E+00  0.7583E+01
   5.220  0.2075E+01  0.7625E+01
   5.240  0.2075E+01  0.7666E+01
   5.260  0.5857E+00  0.7678E+01
   5.280  0.1236E+01  0.7703E+01
   5.300  0.1213E+01  0.7727E+01
   5.320  0.1934E+00  0.7731E+01
   5.340  0.3436E+00  0.7738E+01
   5.360  0.6168E+00  0.7750E+01
   5.380  0.1726E+00  0.7753E+01
   5.400  0.2033E+00  0.7758E+01
   5.420  0.7738E+00  0.7773E+01
   5.440  0.6294E+00  0.7786E+01
   5.460  0.5463E+00  0.7797E+01
   5.480  0.2182E+00  0.7801E+01
   5.500  0.6247E+00  0.7813E+01
   5.520  0.1291E+01  0.7839E+01
   5.540  0.9687E+00  0.7859E+01
   5.560  0.1796E+00  0.7862E+01
   5.580  0.4012E-01  0.7863E+01
   5.600  0.4377E+00  0.7872E+01
   5.620  0.7649E+00  0.7887E+01
   5.640  0.4193E+00  0.7895E+01
   5.660  0.3571E+00  0.7903E+01
   5.680  0.6721E-01  0.7904E+01
   5.700  0.1741E-02  0.7904E+01
   5.720  0.1619E-02  0.7904E+01
   5.740  0.7376E-01  0.7905E+01
   5.760  0.4958E+00  0.7915E+01
   5.780  0.6952E+00  0.7929E+01
   5.800  0.3205E+00  0.7936E+01
   5.820  0.3740E-01  0.7936E+01
   5.840  0.1584E+00  0.7940E+01
   5.860  0.7302E+00  0.7954E+01
   5.880  0.4570E+00  0.7963E+01
   5.900  0.3871E-01  0.7964E+01
   5.920  0.4437E-03  0.7964E+01
   5.940  0.6883E-06  0.7964E+01
   5.960  0.1445E-09  0.7964E+01
   5.980  0.6394E-10  0.7964E+01
   6.000  0.3320E-06  0.7964E+01
   6.020  0.2333E-03  0.7964E+01
   6.040  0.2221E-01  0.7965E+01
   6.060  0.2908E+00  0.7970E+01
   6.080  0.6212E+00  0.7983E+01
   6.100  0.5069E+00  0.7993E+01
   6.120  0.1694E+00  0.7996E+01
   6.140  0.9550E-02  0.7997E+01
   6.160  0.8709E-04  0.7997E+01
   6.180  0.1867E-02  0.7997E+01
   6.200  0.3676E-01  0.7997E+01
   6.220  0.9794E-01  0.7999E+01
   6.240  0.3531E-01  0.8000E+01
   6.260  0.1723E-02  0.8000E+01
   6.280  0.1138E-04  0.8000E+01
   6.300  0.1017E-07  0.8000E+01
   6.320  0.1230E-11  0.8000E+01
   6.340  0.2014E-16  0.8000E+01
   6.360  0.4461E-22  0.8000E+01
   6.380  0.1338E-28  0.8000E+01
   6.400  0.5427E-36  0.8000E+01
   6.420  0.2980E-44  0.8000E+01
   6.440  0.2215E-53  0.8000E+01
   6.460  0.2228E-63  0.8000E+01
   6.480  0.3032E-74  0.8000E+01
   6.500  0.1255E-83  0.8000E+01
   6.520  0.2037E-79  0.8000E+01
   6.540  0.3874E-68  0.8000E+01
   6.560  0.9974E-58  0.8000E+01
   6.580  0.3475E-48  0.8000E+01
   6.600  0.1639E-39  0.8000E+01
   6.620  0.1046E-31  0.8000E+01
   6.640  0.9031E-25  0.8000E+01
   6.660  0.1056E-18  0.8000E+01
   6.680  0.1670E-13  0.8000E+01
   6.700  0.3574E-09  0.8000E+01
   6.720  0.1036E-05  0.8000E+01
   6.740  0.4060E-03  0.8000E+01
   6.760  0.2155E-01  0.8000E+01
   6.780  0.1547E+00  0.8004E+01
   6.800  0.1504E+00  0.8007E+01
   6.820  0.1978E-01  0.8007E+01
   6.840  0.3521E-03  0.8007E+01
   6.860  0.2691E-05  0.8007E+01
   6.880  0.6158E-03  0.8007E+01
   6.900  0.2868E-01  0.8008E+01
   6.920  0.2081E+00  0.8012E+01
   6.940  0.3226E+00  0.8018E+01
   6.960  0.1964E+00  0.8022E+01
   6.980  0.5861E+00  0.8034E+01
   7.000  0.6421E+00  0.8047E+01
   7.020  0.9669E-01  0.8049E+01
   7.040  0.1980E-02  0.8049E+01
   7.060  0.2803E-02  0.8049E+01
   7.080  0.1187E+00  0.8051E+01
   7.100  0.6820E+00  0.8065E+01
   7.120  0.5647E+00  0.8076E+01
   7.140  0.3446E+00  0.8083E+01
   7.160  0.3213E+00  0.8089E+01
   7.180  0.4811E-01  0.8090E+01
   7.200  0.9774E-03  0.8090E+01
   7.220  0.6376E-04  0.8090E+01
   7.240  0.1054E-01  0.8090E+01
   7.260  0.2464E+00  0.8095E+01
   7.280  0.7791E+00  0.8111E+01
   7.300  0.3341E+00  0.8118E+01
   7.320  0.4672E-01  0.8119E+01
   7.340  0.1669E+00  0.8122E+01
   7.360  0.1471E+00  0.8125E+01
   7.380  0.1324E+00  0.8128E+01
   7.400  0.2539E+00  0.8133E+01
   7.420  0.8734E+00  0.8150E+01
   7.440  0.1788E+01  0.8186E+01
   7.460  0.1195E+01  0.8210E+01
   7.480  0.2657E+00  0.8215E+01
   7.500  0.1924E-01  0.8215E+01
   7.520  0.2312E+00  0.8220E+01
   7.540  0.1035E+01  0.8241E+01
   7.560  0.1150E+01  0.8264E+01
   7.580  0.4057E+00  0.8272E+01
   7.600  0.5904E+00  0.8284E+01
   7.620  0.7234E+00  0.8298E+01
   7.640  0.6945E+00  0.8312E+01
   7.660  0.6266E+00  0.8325E+01
   7.680  0.9028E-01  0.8326E+01
   7.700  0.1275E+00  0.8329E+01
   7.720  0.1376E+01  0.8356E+01
   7.740  0.2213E+01  0.8401E+01
   7.760  0.6986E+00  0.8415E+01
   7.780  0.4285E+00  0.8423E+01
   7.800  0.3818E+00  0.8431E+01
   7.820  0.2695E+00  0.8436E+01
   7.840  0.5861E-01  0.8437E+01
   7.860  0.2033E-02  0.8437E+01
   7.880  0.2278E-01  0.8438E+01
   7.900  0.4170E+00  0.8446E+01
   7.920  0.1539E+01  0.8477E+01
   7.940  0.3125E+01  0.8540E+01
   7.960  0.2688E+01  0.8593E+01
   7.980  0.1212E+01  0.8618E+01
   8.000  0.8708E+00  0.8635E+01
   8.020  0.5868E+00  0.8647E+01
   8.040  0.8166E-01  0.8648E+01
   8.060  0.2910E+00  0.8654E+01
   8.080  0.1368E+01  0.8682E+01
   8.100  0.1885E+01  0.8719E+01
   8.120  0.5839E+00  0.8731E+01
   8.140  0.3445E-01  0.8732E+01
   8.160  0.1929E+00  0.8735E+01
   8.180  0.7767E+00  0.8751E+01
   8.200  0.6481E+00  0.8764E+01
   8.220  0.1080E+01  0.8786E+01
   8.240  0.1943E+01  0.8824E+01
   8.260  0.2072E+01  0.8866E+01
   8.280  0.1352E+01  0.8893E+01
   8.300  0.8794E+00  0.8910E+01
   8.320  0.7920E+00  0.8926E+01
   8.340  0.2943E+01  0.8985E+01
   8.360  0.2855E+01  0.9042E+01
   8.380  0.6823E+00  0.9056E+01
   8.400  0.8198E+00  0.9072E+01
   8.420  0.1104E+01  0.9094E+01
   8.440  0.1030E+01  0.9115E+01
   8.460  0.1595E+01  0.9147E+01
   8.480  0.8865E+00  0.9165E+01
   8.500  0.7743E+00  0.9180E+01
   8.520  0.1526E+01  0.9211E+01
   8.540  0.1192E+01  0.9235E+01
   8.560  0.1151E+01  0.9258E+01
   8.580  0.1502E+01  0.9288E+01
   8.600  0.1369E+01  0.9315E+01
   8.620  0.2757E+00  0.9320E+01
   8.640  0.9003E+00  0.9338E+01
   8.660  0.2431E+01  0.9387E+01
   8.680  0.1672E+01  0.9421E+01
   8.700  0.9315E+00  0.9439E+01
   8.720  0.3516E+00  0.9446E+01
   8.740  0.7513E+00  0.9461E+01
   8.760  0.1005E+01  0.9481E+01
   8.780  0.5506E+00  0.9492E+01
   8.800  0.1206E+01  0.9516E+01
   8.820  0.3291E+01  0.9582E+01
   8.840  0.4787E+01  0.9678E+01
   8.860  0.3371E+01  0.9745E+01
   8.880  0.2479E+01  0.9795E+01
   8.900  0.1477E+01  0.9825E+01
   8.920  0.1133E+01  0.9847E+01
   8.940  0.1660E+01  0.9880E+01
   8.960  0.1142E+01  0.9903E+01
   8.980  0.1496E+01  0.9933E+01
   9.000  0.2101E+01  0.9975E+01
   9.020  0.1040E+01  0.9996E+01
   9.040  0.3855E+00  0.1000E+02
   9.060  0.5392E+00  0.1001E+02
   9.080  0.7029E+00  0.1003E+02
   9.100  0.1337E+00  0.1003E+02
   9.120  0.3670E-01  0.1003E+02
   9.140  0.2845E+00  0.1004E+02
   9.160  0.4055E+00  0.1005E+02
   9.180  0.9038E+00  0.1006E+02
   9.200  0.2024E+01  0.1010E+02
   9.220  0.2293E+01  0.1015E+02
   9.240  0.2865E+01  0.1021E+02
   9.260  0.1395E+01  0.1024E+02
   9.280  0.3407E+00  0.1024E+02
   9.300  0.7446E+00  0.1026E+02
   9.320  0.9551E+00  0.1028E+02
   9.340  0.1058E+01  0.1030E+02
   9.360  0.8553E+00  0.1031E+02
   9.380  0.8927E+00  0.1033E+02
   9.400  0.1257E+01  0.1036E+02
   9.420  0.3467E+01  0.1043E+02
   9.440  0.4538E+01  0.1052E+02
   9.460  0.2818E+01  0.1057E+02
   9.480  0.2355E+01  0.1062E+02
   9.500  0.1345E+01  0.1065E+02
   9.520  0.9600E+00  0.1067E+02
   9.540  0.1051E+01  0.1069E+02
   9.560  0.1439E+01  0.1072E+02
   9.580  0.2127E+01  0.1076E+02
   9.600  0.2833E+01  0.1082E+02
   9.620  0.2078E+01  0.1086E+02
   9.640  0.2859E+00  0.1086E+02
   9.660  0.1168E+00  0.1087E+02
   9.680  0.6773E+00  0.1088E+02
   9.700  0.8559E+00  0.1090E+02
   9.720  0.2115E+01  0.1094E+02
   9.740  0.3484E+01  0.1101E+02
   9.760  0.3472E+01  0.1108E+02
   9.780  0.2789E+01  0.1113E+02
   9.800  0.2110E+01  0.1118E+02
   9.820  0.2418E+01  0.1122E+02
   9.840  0.1087E+01  0.1125E+02
   9.860  0.1072E+00  0.1125E+02
   9.880  0.3543E+00  0.1126E+02
   9.900  0.1340E+01  0.1128E+02
   9.920  0.1378E+01  0.1131E+02
   9.940  0.1482E+01  0.1134E+02
   9.960  0.3770E+01  0.1141E+02
   9.980  0.4021E+01  0.1149E+02
  10.000  0.1399E+01  0.1152E+02
  10.020  0.1286E+00  0.1153E+02
  10.040  0.3972E-01  0.1153E+02
  10.060  0.2971E+00  0.1153E+02
  10.080  0.3874E+00  0.1154E+02
  10.100  0.9090E+00  0.1156E+02
  10.120  0.1509E+01  0.1159E+02
  10.140  0.1058E+01  0.1161E+02
  10.160  0.1565E+01  0.1164E+02
  10.180  0.4831E+00  0.1165E+02
  10.200  0.3396E+00  0.1166E+02
  10.220  0.9718E+00  0.1168E+02
  10.240  0.6202E+00  0.1169E+02
  10.260  0.6012E+00  0.1170E+02
  10.280  0.2143E+01  0.1174E+02
  10.300  0.2286E+01  0.1179E+02
  10.320  0.1266E+01  0.1181E+02
  10.340  0.1608E+01  0.1185E+02
  10.360  0.1287E+01  0.1187E+02
  10.380  0.2328E+01  0.1192E+02
  10.400  0.2264E+01  0.1196E+02
  10.420  0.1694E+01  0.1200E+02
  10.440  0.2449E+01  0.1205E+02
  10.460  0.1857E+01  0.1208E+02
  10.480  0.1504E+01  0.1211E+02
  10.500  0.2308E+01  0.1216E+02
  10.520  0.2916E+01  0.1222E+02
  10.540  0.1191E+01  0.1224E+02
  10.560  0.4436E+00  0.1225E+02
  10.580  0.2669E+00  0.1226E+02
  10.600  0.4688E+00  0.1227E+02
  10.620  0.7360E+00  0.1228E+02
  10.640  0.2386E+00  0.1229E+02
  10.660  0.6213E+00  0.1230E+02
  10.680  0.1028E+01  0.1232E+02
  10.700  0.1332E+01  0.1235E+02
  10.720  0.1122E+01  0.1237E+02
  10.740  0.1487E+01  0.1240E+02
  10.760  0.2816E+01  0.1245E+02
  10.780  0.3632E+01  0.1253E+02
  10.800  0.1689E+01  0.1256E+02
  10.820  0.8516E+00  0.1258E+02
  10.840  0.2471E+01  0.1263E+02
  10.860  0.1760E+01  0.1266E+02
  10.880  0.1200E+01  0.1269E+02
  10.900  0.1546E+01  0.1272E+02
  10.920  0.5611E+00  0.1273E+02
  10.940  0.8368E-01  0.1273E+02
  10.960  0.7612E+00  0.1275E+02
  10.980  0.1588E+01  0.1278E+02
  11.000  0.8733E+00  0.1279E+02
  11.020  0.1674E+01  0.1283E+02
  11.040  0.2515E+01  0.1288E+02
  11.060  0.8176E+00  0.1289E+02
  11.080  0.1402E+00  0.1290E+02
  11.100  0.1488E+01  0.1293E+02
  11.120  0.4244E+01  0.1301E+02
  11.140  0.2280E+01  0.1306E+02
  11.160  0.2302E+00  0.1306E+02
  11.180  0.1776E-01  0.1306E+02
  11.200  0.3439E+00  0.1307E+02
  11.220  0.1160E+01  0.1309E+02
  11.240  0.6051E+00  0.1310E+02
  11.260  0.1104E+01  0.1313E+02
  11.280  0.2683E+01  0.1318E+02
  11.300  0.1632E+01  0.1321E+02
  11.320  0.1372E+01  0.1324E+02
  11.340  0.1475E+01  0.1327E+02
  11.360  0.5906E+00  0.1328E+02
  11.380  0.1260E+00  0.1328E+02
  11.400  0.5170E-02  0.1328E+02
  11.420  0.2956E-04  0.1328E+02
  11.440  0.1579E-05  0.1328E+02
  11.460  0.9705E-03  0.1328E+02
  11.480  0.8198E-01  0.1329E+02
  11.500  0.9456E+00  0.1331E+02
  11.520  0.1695E+01  0.1334E+02
  11.540  0.1373E+01  0.1337E+02
  11.560  0.1145E+01  0.1339E+02
  11.580  0.4546E+00  0.1340E+02
  11.600  0.9460E+00  0.1342E+02
  11.620  0.1258E+01  0.1344E+02
  11.640  0.6136E+00  0.1346E+02
  11.660  0.1317E+01  0.1348E+02
  11.680  0.2695E+01  0.1354E+02
  11.700  0.1762E+01  0.1357E+02
  11.720  0.8689E+00  0.1359E+02
  11.740  0.7391E+00  0.1360E+02
  11.760  0.1368E+01  0.1363E+02
  11.780  0.1122E+01  0.1365E+02
  11.800  0.1375E+00  0.1366E+02
  11.820  0.2274E+00  0.1366E+02
  11.840  0.1084E+01  0.1368E+02
  11.860  0.1216E+01  0.1371E+02
  11.880  0.6166E+00  0.1372E+02
  11.900  0.2903E+00  0.1372E+02
  11.920  0.4055E-01  0.1372E+02
  11.940  0.3179E+00  0.1373E+02
  11.960  0.2054E+01  0.1377E+02
  11.980  0.3998E+01  0.1385E+02
  12.000  0.2522E+01  0.1390E+02
  12.020  0.1480E+01  0.1393E+02
  12.040  0.1738E+01  0.1397E+02
  12.060  0.3716E+00  0.1397E+02
  12.080  0.4704E-01  0.1398E+02
  12.100  0.6857E+00  0.1399E+02
  12.120  0.2270E+01  0.1403E+02
  12.140  0.2042E+01  0.1408E+02
  12.160  0.5530E+00  0.1409E+02
  12.180  0.5415E+00  0.1410E+02
  12.200  0.9570E+00  0.1412E+02
  12.220  0.1832E+01  0.1415E+02
  12.240  0.2660E+01  0.1421E+02
  12.260  0.2656E+01  0.1426E+02
  12.280  0.2857E+01  0.1432E+02
  12.300  0.1111E+01  0.1434E+02
  12.320  0.1107E+01  0.1436E+02
  12.340  0.1221E+01  0.1439E+02
  12.360  0.1250E+01  0.1441E+02
  12.380  0.1112E+01  0.1443E+02
  12.400  0.9830E+00  0.1445E+02
  12.420  0.8783E+00  0.1447E+02
  12.440  0.6367E+00  0.1448E+02
  12.460  0.1508E+01  0.1451E+02
  12.480  0.1265E+01  0.1454E+02
  12.500  0.1608E+01  0.1457E+02
  12.520  0.7380E+00  0.1458E+02
  12.540  0.5986E-01  0.1459E+02
  12.560  0.2650E+00  0.1459E+02
  12.580  0.7822E+00  0.1461E+02
  12.600  0.3186E+00  0.1461E+02
  12.620  0.1948E+00  0.1462E+02
  12.640  0.8761E+00  0.1463E+02
  12.660  0.1351E+01  0.1466E+02
  12.680  0.1165E+01  0.1468E+02
  12.700  0.1169E+01  0.1471E+02
  12.720  0.2124E+01  0.1475E+02
  12.740  0.2070E+01  0.1479E+02
  12.760  0.7386E+00  0.1481E+02
  12.780  0.4511E-01  0.1481E+02
  12.800  0.7378E-02  0.1481E+02
  12.820  0.1929E+00  0.1481E+02
  12.840  0.8819E+00  0.1483E+02
  12.860  0.1122E+01  0.1485E+02
  12.880  0.2770E+01  0.1491E+02
  12.900  0.2085E+01  0.1495E+02
  12.920  0.2753E+00  0.1495E+02
  12.940  0.7341E+00  0.1497E+02
  12.960  0.1994E+01  0.1501E+02
  12.980  0.2609E+01  0.1506E+02
  13.000  0.1437E+01  0.1509E+02
  13.020  0.1724E+00  0.1509E+02
  13.040  0.4770E+00  0.1510E+02
  13.060  0.1150E+01  0.1513E+02
  13.080  0.1123E+01  0.1515E+02
  13.100  0.6098E+00  0.1516E+02
  13.120  0.1391E+00  0.1516E+02
  13.140  0.2588E+00  0.1517E+02
  13.160  0.1799E+00  0.1517E+02
  13.180  0.2007E+00  0.1518E+02
  13.200  0.1013E+00  0.1518E+02
  13.220  0.2229E+00  0.1518E+02
  13.240  0.8058E+00  0.1520E+02
  13.260  0.8979E+00  0.1522E+02
  13.280  0.1561E+01  0.1525E+02
  13.300  0.1799E+01  0.1528E+02
  13.320  0.1871E+01  0.1532E+02
  13.340  0.1922E+01  0.1536E+02
  13.360  0.8189E+00  0.1538E+02
  13.380  0.1914E+00  0.1538E+02
  13.400  0.8830E+00  0.1540E+02
  13.420  0.1459E+01  0.1543E+02
  13.440  0.1032E+01  0.1545E+02
  13.460  0.2550E+00  0.1545E+02
  13.480  0.3985E+00  0.1546E+02
  13.500  0.1092E+01  0.1548E+02
  13.520  0.2819E+01  0.1554E+02
  13.540  0.3159E+01  0.1560E+02
  13.560  0.2430E+01  0.1565E+02
  13.580  0.4554E+00  0.1566E+02
  13.600  0.3186E+00  0.1567E+02
  13.620  0.1565E+01  0.1570E+02
  13.640  0.2325E+01  0.1574E+02
  13.660  0.2285E+01  0.1579E+02
  13.680  0.2002E+01  0.1583E+02
  13.700  0.2327E+01  0.1588E+02
  13.720  0.3356E+01  0.1594E+02
  13.740  0.2214E+01  0.1599E+02
  13.760  0.8153E+00  0.1600E+02
  13.780  0.1654E+01  0.1604E+02
  13.800  0.3573E+01  0.1611E+02
  13.820  0.2697E+01  0.1616E+02
  13.840  0.1161E+01  0.1619E+02
  13.860  0.8369E+00  0.1620E+02
  13.880  0.3951E+00  0.1621E+02
  13.900  0.3858E+00  0.1622E+02
  13.920  0.1135E+00  0.1622E+02
  13.940  0.1395E+00  0.1622E+02
  13.960  0.1640E+00  0.1623E+02
  13.980  0.3420E-01  0.1623E+02
  14.000  0.1767E+00  0.1623E+02
  14.020  0.8724E+00  0.1625E+02
  14.040  0.7037E+00  0.1626E+02
  14.060  0.3497E+00  0.1627E+02
  14.080  0.1114E+01  0.1629E+02
  14.100  0.7535E+00  0.1631E+02
  14.120  0.3121E+00  0.1631E+02
  14.140  0.1675E+01  0.1635E+02
  14.160  0.2333E+01  0.1639E+02
  14.180  0.1605E+01  0.1642E+02
  14.200  0.2635E+01  0.1648E+02
  14.220  0.2685E+01  0.1653E+02
  14.240  0.2294E+01  0.1658E+02
  14.260  0.1285E+01  0.1660E+02
  14.280  0.7203E+00  0.1662E+02
  14.300  0.1383E+01  0.1664E+02
  14.320  0.1784E+01  0.1668E+02
  14.340  0.7096E+00  0.1669E+02
  14.360  0.6390E-01  0.1670E+02
  14.380  0.4857E+00  0.1671E+02
  14.400  0.1811E+01  0.1674E+02
  14.420  0.2127E+01  0.1678E+02
  14.440  0.1339E+01  0.1681E+02
  14.460  0.1016E+01  0.1683E+02
  14.480  0.1470E+01  0.1686E+02
  14.500  0.2263E+01  0.1691E+02
  14.520  0.1237E+01  0.1693E+02
  14.540  0.8547E+00  0.1695E+02
  14.560  0.4162E+00  0.1696E+02
  14.580  0.2323E+00  0.1696E+02
  14.600  0.3693E-01  0.1696E+02
  14.620  0.1291E-02  0.1696E+02
  14.640  0.5114E-01  0.1696E+02
  14.660  0.7644E+00  0.1698E+02
  14.680  0.1641E+01  0.1701E+02
  14.700  0.1087E+01  0.1703E+02
  14.720  0.1091E+01  0.1705E+02
  14.740  0.1289E+01  0.1708E+02
  14.760  0.8629E+00  0.1710E+02
  14.780  0.8290E+00  0.1711E+02
  14.800  0.6114E+00  0.1713E+02
  14.820  0.1413E+01  0.1715E+02
  14.840  0.1041E+01  0.1718E+02
  14.860  0.4380E+00  0.1718E+02
  14.880  0.7799E+00  0.1720E+02
  14.900  0.2448E+00  0.1720E+02
  14.920  0.7405E-01  0.1721E+02
  14.940  0.5586E+00  0.1722E+02
  14.960  0.7485E+00  0.1723E+02
  14.980  0.1014E+01  0.1725E+02
  15.000  0.2019E+01  0.1729E+02
  15.020  0.2172E+01  0.1734E+02
  15.040  0.2690E+01  0.1739E+02
  15.060  0.1693E+01  0.1742E+02
  15.080  0.1911E+01  0.1746E+02
  15.100  0.1537E+01  0.1749E+02
  15.120  0.9738E+00  0.1751E+02
  15.140  0.2049E+01  0.1755E+02
  15.160  0.2023E+01  0.1759E+02
  15.180  0.1309E+01  0.1762E+02
  15.200  0.5717E+00  0.1763E+02
  15.220  0.9434E+00  0.1765E+02
  15.240  0.9530E+00  0.1767E+02
  15.260  0.1719E+01  0.1770E+02
  15.280  0.3047E+01  0.1776E+02
  15.300  0.3400E+01  0.1783E+02
  15.320  0.1216E+01  0.1786E+02
  15.340  0.1407E+01  0.1789E+02
  15.360  0.1875E+01  0.1792E+02
  15.380  0.9661E+00  0.1794E+02
  15.400  0.9004E+00  0.1796E+02
  15.420  0.9604E+00  0.1798E+02
  15.440  0.1573E+01  0.1801E+02
  15.460  0.1483E+01  0.1804E+02
  15.480  0.9186E+00  0.1806E+02
  15.500  0.2112E+01  0.1810E+02
  15.520  0.1887E+01  0.1814E+02
  15.540  0.3732E+01  0.1821E+02
  15.560  0.2368E+01  0.1826E+02
  15.580  0.1964E+01  0.1830E+02
  15.600  0.2452E+01  0.1835E+02
  15.620  0.2024E+01  0.1839E+02
  15.640  0.1626E+01  0.1842E+02
  15.660  0.1348E+01  0.1845E+02
  15.680  0.1273E+01  0.1847E+02
  15.700  0.9234E+00  0.1849E+02
  15.720  0.1477E+01  0.1852E+02
  15.740  0.6549E+00  0.1854E+02
  15.760  0.4675E+00  0.1855E+02
  15.780  0.7510E+00  0.1856E+02
  15.800  0.2906E+00  0.1857E+02
  15.820  0.7217E+00  0.1858E+02
  15.840  0.1432E+01  0.1861E+02
  15.860  0.2836E+01  0.1867E+02
  15.880  0.2399E+01  0.1871E+02
  15.900  0.1689E+01  0.1875E+02
  15.920  0.1501E+01  0.1878E+02
  15.940  0.9812E+00  0.1880E+02
  15.960  0.1611E+00  0.1880E+02
  15.980  0.1705E+00  0.1880E+02
  16.000  0.1359E+00  0.1881E+02
  16.020  0.1590E-01  0.1881E+02
  16.040  0.7461E-01  0.1881E+02
  16.060  0.9563E+00  0.1883E+02
  16.080  0.2546E+01  0.1888E+02
  16.100  0.2423E+01  0.1893E+02
  16.120  0.2249E+01  0.1897E+02
  16.140  0.1875E+01  0.1901E+02
  16.160  0.3292E+00  0.1902E+02
  16.180  0.8680E+00  0.1903E+02
  16.200  0.2330E+01  0.1908E+02
  16.220  0.8834E+00  0.1910E+02
  16.240  0.4760E-01  0.1910E+02
  16.260  0.4893E-01  0.1910E+02
  16.280  0.7437E+00  0.1911E+02
  16.300  0.1568E+01  0.1915E+02
  16.320  0.6014E+00  0.1916E+02
  16.340  0.1488E+00  0.1916E+02
  16.360  0.1433E-01  0.1916E+02
  16.380  0.3059E-01  0.1916E+02
  16.400  0.4476E+00  0.1917E+02
  16.420  0.1356E+01  0.1920E+02
  16.440  0.2154E+01  0.1924E+02
  16.460  0.2230E+01  0.1929E+02
  16.480  0.1040E+01  0.1931E+02
  16.500  0.1709E+01  0.1934E+02
  16.520  0.1642E+01  0.1937E+02
  16.540  0.4726E+00  0.1938E+02
  16.560  0.3260E-01  0.1938E+02
  16.580  0.7729E-01  0.1938E+02
  16.600  0.2587E+00  0.1939E+02
  16.620  0.1537E+00  0.1939E+02
  16.640  0.4524E+00  0.1940E+02
  16.660  0.7449E+00  0.1942E+02
  16.680  0.4525E+00  0.1943E+02
  16.700  0.1652E+01  0.1946E+02
  16.720  0.2328E+01  0.1951E+02
  16.740  0.2635E+01  0.1956E+02
  16.760  0.2460E+01  0.1961E+02
  16.780  0.3486E+01  0.1968E+02
  16.800  0.4023E+01  0.1976E+02
  16.820  0.3295E+01  0.1982E+02
  16.840  0.1701E+01  0.1986E+02
  16.860  0.7695E+00  0.1987E+02
  16.880  0.3411E+00  0.1988E+02
  16.900  0.2436E+00  0.1988E+02
  16.920  0.6371E+00  0.1990E+02
  16.940  0.6800E+00  0.1991E+02
  16.960  0.6882E+00  0.1992E+02
  16.980  0.7051E+00  0.1994E+02
  17.000  0.7188E+00  0.1995E+02
  17.020  0.7375E+00  0.1997E+02
  17.040  0.9500E+00  0.1999E+02
  17.060  0.2018E+01  0.2003E+02
  17.080  0.2633E+01  0.2008E+02
  17.100  0.1406E+01  0.2011E+02
  17.120  0.1947E+01  0.2015E+02
  17.140  0.1914E+01  0.2019E+02
  17.160  0.6068E+00  0.2020E+02
  17.180  0.1116E+01  0.2022E+02
  17.200  0.3357E+01  0.2029E+02
  17.220  0.2455E+01  0.2034E+02
  17.240  0.3764E+00  0.2034E+02
  17.260  0.9506E-01  0.2035E+02
  17.280  0.1442E+01  0.2037E+02
  17.300  0.3916E+01  0.2045E+02
  17.320  0.3416E+01  0.2052E+02
  17.340  0.3839E+01  0.2060E+02
  17.360  0.3043E+01  0.2066E+02
  17.380  0.2192E+01  0.2070E+02
  17.400  0.2080E+01  0.2074E+02
  17.420  0.4571E+00  0.2075E+02
  17.440  0.3237E-01  0.2075E+02
  17.460  0.4036E+00  0.2076E+02
  17.480  0.1842E+01  0.2080E+02
  17.500  0.1765E+01  0.2083E+02
  17.520  0.3064E+00  0.2084E+02
  17.540  0.5233E-01  0.2084E+02
  17.560  0.4946E+00  0.2085E+02
  17.580  0.1097E+01  0.2087E+02
  17.600  0.4287E+00  0.2088E+02
  17.620  0.2843E+00  0.2089E+02
  17.640  0.1419E+01  0.2092E+02
  17.660  0.1292E+01  0.2094E+02
  17.680  0.9544E+00  0.2096E+02
  17.700  0.1515E+01  0.2099E+02
  17.720  0.2482E+01  0.2104E+02
  17.740  0.1874E+01  0.2108E+02
  17.760  0.2701E+00  0.2108E+02
  17.780  0.1140E+00  0.2109E+02
  17.800  0.1859E+00  0.2109E+02
  17.820  0.4321E-01  0.2109E+02
  17.840  0.1359E-02  0.2109E+02
  17.860  0.6465E-05  0.2109E+02
  17.880  0.3629E-03  0.2109E+02
  17.900  0.2636E-01  0.2109E+02
  17.920  0.2592E+00  0.2110E+02
  17.940  0.3449E+00  0.2110E+02
  17.960  0.6532E-01  0.2110E+02
  17.980  0.1652E+00  0.2111E+02
  18.000  0.1408E+01  0.2114E+02
  18.020  0.2953E+01  0.2119E+02
  18.040  0.3242E+01  0.2126E+02
  18.060  0.2891E+01  0.2132E+02
  18.080  0.1146E+01  0.2134E+02
  18.100  0.1701E+01  0.2137E+02
  18.120  0.2124E+01  0.2142E+02
  18.140  0.1328E+01  0.2144E+02
  18.160  0.8927E+00  0.2146E+02
  18.180  0.1278E+01  0.2149E+02
  18.200  0.6379E+00  0.2150E+02
  18.220  0.6988E+00  0.2151E+02
  18.240  0.1576E+01  0.2155E+02
  18.260  0.7832E+00  0.2156E+02
  18.280  0.8486E+00  0.2158E+02
  18.300  0.6187E+00  0.2159E+02
  18.320  0.3172E+00  0.2160E+02
  18.340  0.4351E-01  0.2160E+02
  18.360  0.1605E+00  0.2160E+02
  18.380  0.1097E+01  0.2162E+02
  18.400  0.2256E+01  0.2167E+02
  18.420  0.3588E+01  0.2174E+02
  18.440  0.2878E+01  0.2180E+02
  18.460  0.1847E+01  0.2183E+02
  18.480  0.1571E+01  0.2187E+02
  18.500  0.1879E+01  0.2190E+02
  18.520  0.2022E+01  0.2194E+02
  18.540  0.1858E+01  0.2198E+02
  18.560  0.1988E+01  0.2202E+02
  18.580  0.1495E+01  0.2205E+02
  18.600  0.2719E+00  0.2206E+02
  18.620  0.2115E+00  0.2206E+02
  18.640  0.1631E+01  0.2209E+02
  18.660  0.4801E+01  0.2219E+02
  18.680  0.4935E+01  0.2229E+02
  18.700  0.2017E+01  0.2233E+02
  18.720  0.2134E+01  0.2237E+02
  18.740  0.2984E+01  0.2243E+02
  18.760  0.2056E+01  0.2247E+02
  18.780  0.4719E+00  0.2248E+02
  18.800  0.6820E+00  0.2249E+02
  18.820  0.1367E+01  0.2252E+02
  18.840  0.1570E+01  0.2255E+02
  18.860  0.2743E+01  0.2261E+02
  18.880  0.2347E+01  0.2265E+02
  18.900  0.1244E+01  0.2268E+02
  18.920  0.1133E+01  0.2270E+02
  18.940  0.8355E+00  0.2272E+02
  18.960  0.1693E+00  0.2272E+02
  18.980  0.3947E-01  0.2272E+02
  19.000  0.7738E+00  0.2274E+02
  19.020  0.3363E+01  0.2281E+02
  19.040  0.2897E+01  0.2286E+02
  19.060  0.1449E+01  0.2289E+02
  19.080  0.1673E+01  0.2293E+02
  19.100  0.1217E+01  0.2295E+02
  19.120  0.3177E+01  0.2301E+02
  19.140  0.4277E+01  0.2310E+02
  19.160  0.2606E+01  0.2315E+02
  19.180  0.1322E+01  0.2318E+02
  19.200  0.8450E+00  0.2319E+02
  19.220  0.6705E+00  0.2321E+02
  19.240  0.1791E+01  0.2324E+02
  19.260  0.2897E+01  0.2330E+02
  19.280  0.2903E+01  0.2336E+02
  19.300  0.1657E+01  0.2339E+02
  19.320  0.8218E+00  0.2341E+02
  19.340  0.4849E+00  0.2342E+02
  19.360  0.9627E+00  0.2344E+02
  19.380  0.8328E+00  0.2346E+02
  19.400  0.2957E+00  0.2346E+02
  19.420  0.5934E+00  0.2347E+02
  19.440  0.9523E+00  0.2349E+02
  19.460  0.1152E+01  0.2352E+02
  19.480  0.2519E+01  0.2357E+02
  19.500  0.1944E+01  0.2360E+02
  19.520  0.5612E+00  0.2362E+02
  19.540  0.7839E+00  0.2363E+02
  19.560  0.3764E+00  0.2364E+02
  19.580  0.5642E+00  0.2365E+02
  19.600  0.1907E+01  0.2369E+02
  19.620  0.9568E+00  0.2371E+02
  19.640  0.5458E+00  0.2372E+02
  19.660  0.1580E+01  0.2375E+02
  19.680  0.1064E+01  0.2377E+02
  19.700  0.1286E+01  0.2380E+02
  19.720  0.1943E+01  0.2384E+02
  19.740  0.2014E+01  0.2388E+02
  19.760  0.2475E+01  0.2393E+02
  19.780  0.2292E+01  0.2397E+02
  19.800  0.1158E+01  0.2399E+02
  19.820  0.8846E+00  0.2401E+02
  19.840  0.9507E+00  0.2403E+02
  19.860  0.1926E+01  0.2407E+02
  19.880  0.1455E+01  0.2410E+02
  19.900  0.8804E+00  0.2412E+02
  19.920  0.2100E+01  0.2416E+02
  19.940  0.1978E+01  0.2420E+02
  19.960  0.1668E+01  0.2423E+02
  19.980  0.9423E+00  0.2425E+02
  20.000  0.6242E+00  0.2426E+02
