# E (eV)  dos(E)    pdos(E)
  -6.565  0.292E-04  0.291E-04
  -6.515  0.874E-04  0.871E-04
  -6.465  0.245E-03  0.244E-03
  -6.415  0.644E-03  0.641E-03
  -6.365  0.158E-02  0.158E-02
  -6.315  0.365E-02  0.363E-02
  -6.265  0.787E-02  0.784E-02
  -6.215  0.159E-01  0.159E-01
  -6.165  0.303E-01  0.302E-01
  -6.115  0.539E-01  0.537E-01
  -6.065  0.903E-01  0.899E-01
  -6.015  0.142E+00  0.141E+00
  -5.965  0.210E+00  0.209E+00
  -5.915  0.293E+00  0.292E+00
  -5.865  0.385E+00  0.384E+00
  -5.815  0.479E+00  0.477E+00
  -5.765  0.565E+00  0.563E+00
  -5.715  0.633E+00  0.631E+00
  -5.665  0.678E+00  0.675E+00
  -5.615  0.696E+00  0.693E+00
  -5.565  0.690E+00  0.687E+00
  -5.515  0.665E+00  0.662E+00
  -5.465  0.628E+00  0.625E+00
  -5.415  0.585E+00  0.583E+00
  -5.365  0.543E+00  0.541E+00
  -5.315  0.504E+00  0.502E+00
  -5.265  0.469E+00  0.467E+00
  -5.215  0.440E+00  0.439E+00
  -5.165  0.416E+00  0.415E+00
  -5.115  0.396E+00  0.394E+00
  -5.065  0.379E+00  0.378E+00
  -5.015  0.365E+00  0.363E+00
  -4.965  0.352E+00  0.351E+00
  -4.915  0.341E+00  0.340E+00
  -4.865  0.331E+00  0.330E+00
  -4.815  0.323E+00  0.321E+00
  -4.765  0.315E+00  0.313E+00
  -4.715  0.308E+00  0.306E+00
  -4.665  0.301E+00  0.300E+00
  -4.615  0.295E+00  0.294E+00
  -4.565  0.290E+00  0.289E+00
  -4.515  0.285E+00  0.284E+00
  -4.465  0.281E+00  0.279E+00
  -4.415  0.277E+00  0.275E+00
  -4.365  0.273E+00  0.272E+00
  -4.315  0.270E+00  0.269E+00
  -4.265  0.267E+00  0.266E+00
  -4.215  0.265E+00  0.263E+00
  -4.165  0.263E+00  0.261E+00
  -4.115  0.261E+00  0.260E+00
  -4.065  0.260E+00  0.259E+00
  -4.015  0.260E+00  0.258E+00
  -3.965  0.260E+00  0.259E+00
  -3.915  0.261E+00  0.260E+00
  -3.865  0.264E+00  0.263E+00
  -3.815  0.267E+00  0.266E+00
  -3.765  0.272E+00  0.270E+00
  -3.715  0.277E+00  0.275E+00
  -3.665  0.281E+00  0.280E+00
  -3.615  0.284E+00  0.283E+00
  -3.565  0.284E+00  0.283E+00
  -3.515  0.280E+00  0.278E+00
  -3.465  0.271E+00  0.269E+00
  -3.415  0.257E+00  0.256E+00
  -3.365  0.239E+00  0.238E+00
  -3.315  0.220E+00  0.219E+00
  -3.265  0.200E+00  0.199E+00
  -3.215  0.182E+00  0.181E+00
  -3.165  0.167E+00  0.166E+00
  -3.115  0.155E+00  0.154E+00
  -3.065  0.146E+00  0.145E+00
  -3.015  0.140E+00  0.139E+00
  -2.965  0.137E+00  0.136E+00
  -2.915  0.135E+00  0.134E+00
  -2.865  0.134E+00  0.133E+00
  -2.815  0.133E+00  0.133E+00
  -2.765  0.134E+00  0.133E+00
  -2.715  0.134E+00  0.134E+00
  -2.665  0.135E+00  0.135E+00
  -2.615  0.137E+00  0.137E+00
  -2.565  0.140E+00  0.140E+00
  -2.515  0.146E+00  0.145E+00
  -2.465  0.156E+00  0.155E+00
  -2.415  0.171E+00  0.170E+00
  -2.365  0.195E+00  0.194E+00
  -2.315  0.231E+00  0.230E+00
  -2.265  0.279E+00  0.278E+00
  -2.215  0.342E+00  0.340E+00
  -2.165  0.418E+00  0.416E+00
  -2.115  0.503E+00  0.501E+00
  -2.065  0.596E+00  0.593E+00
  -2.015  0.695E+00  0.691E+00
  -1.965  0.800E+00  0.796E+00
  -1.915  0.918E+00  0.913E+00
  -1.865  0.105E+01  0.105E+01
  -1.815  0.122E+01  0.121E+01
  -1.765  0.140E+01  0.139E+01
  -1.715  0.160E+01  0.159E+01
  -1.665  0.180E+01  0.179E+01
  -1.615  0.196E+01  0.195E+01
  -1.565  0.206E+01  0.205E+01
  -1.515  0.209E+01  0.208E+01
  -1.465  0.204E+01  0.203E+01
  -1.415  0.192E+01  0.191E+01
  -1.365  0.175E+01  0.174E+01
  -1.315  0.156E+01  0.156E+01
  -1.265  0.139E+01  0.138E+01
  -1.215  0.124E+01  0.123E+01
  -1.165  0.111E+01  0.111E+01
  -1.115  0.101E+01  0.100E+01
  -1.065  0.923E+00  0.917E+00
  -1.015  0.838E+00  0.833E+00
  -0.965  0.751E+00  0.746E+00
  -0.915  0.662E+00  0.657E+00
  -0.865  0.575E+00  0.571E+00
  -0.815  0.495E+00  0.491E+00
  -0.765  0.426E+00  0.422E+00
  -0.715  0.370E+00  0.367E+00
  -0.665  0.327E+00  0.324E+00
  -0.615  0.295E+00  0.293E+00
  -0.565  0.271E+00  0.269E+00
  -0.515  0.253E+00  0.251E+00
  -0.465  0.239E+00  0.236E+00
  -0.415  0.227E+00  0.225E+00
  -0.365  0.217E+00  0.215E+00
  -0.315  0.209E+00  0.207E+00
  -0.265  0.202E+00  0.201E+00
  -0.215  0.197E+00  0.195E+00
  -0.165  0.192E+00  0.190E+00
  -0.115  0.188E+00  0.187E+00
  -0.065  0.185E+00  0.183E+00
  -0.015  0.182E+00  0.180E+00
   0.035  0.179E+00  0.177E+00
   0.085  0.176E+00  0.175E+00
   0.135  0.174E+00  0.173E+00
   0.185  0.172E+00  0.170E+00
   0.235  0.170E+00  0.168E+00
   0.285  0.168E+00  0.167E+00
   0.335  0.166E+00  0.165E+00
   0.385  0.165E+00  0.163E+00
   0.435  0.163E+00  0.162E+00
   0.485  0.162E+00  0.160E+00
   0.535  0.160E+00  0.159E+00
   0.585  0.159E+00  0.158E+00
   0.635  0.158E+00  0.156E+00
   0.685  0.157E+00  0.155E+00
   0.735  0.155E+00  0.154E+00
   0.785  0.154E+00  0.153E+00
   0.835  0.153E+00  0.152E+00
   0.885  0.152E+00  0.151E+00
   0.935  0.151E+00  0.150E+00
   0.985  0.150E+00  0.149E+00
   1.035  0.149E+00  0.148E+00
   1.085  0.149E+00  0.147E+00
   1.135  0.148E+00  0.147E+00
   1.185  0.148E+00  0.146E+00
   1.235  0.148E+00  0.146E+00
   1.285  0.150E+00  0.148E+00
   1.335  0.154E+00  0.152E+00
   1.385  0.162E+00  0.160E+00
   1.435  0.176E+00  0.174E+00
   1.485  0.201E+00  0.199E+00
   1.535  0.239E+00  0.236E+00
   1.585  0.293E+00  0.291E+00
   1.635  0.367E+00  0.364E+00
   1.685  0.458E+00  0.454E+00
   1.735  0.564E+00  0.560E+00
   1.785  0.677E+00  0.672E+00
   1.835  0.789E+00  0.783E+00
   1.885  0.889E+00  0.882E+00
   1.935  0.971E+00  0.963E+00
   1.985  0.103E+01  0.102E+01
   2.035  0.107E+01  0.106E+01
   2.085  0.110E+01  0.109E+01
   2.135  0.112E+01  0.112E+01
   2.185  0.115E+01  0.114E+01
   2.235  0.118E+01  0.117E+01
   2.285  0.122E+01  0.121E+01
   2.335  0.125E+01  0.124E+01
   2.385  0.128E+01  0.127E+01
   2.435  0.129E+01  0.128E+01
   2.485  0.128E+01  0.127E+01
   2.535  0.125E+01  0.124E+01
   2.585  0.122E+01  0.121E+01
   2.635  0.117E+01  0.116E+01
   2.685  0.112E+01  0.111E+01
   2.735  0.108E+01  0.107E+01
   2.785  0.104E+01  0.103E+01
   2.835  0.101E+01  0.101E+01
   2.885  0.100E+01  0.993E+00
   2.935  0.100E+01  0.993E+00
   2.985  0.101E+01  0.101E+01
   3.035  0.104E+01  0.103E+01
   3.085  0.108E+01  0.107E+01
   3.135  0.113E+01  0.112E+01
   3.185  0.118E+01  0.117E+01
   3.235  0.123E+01  0.122E+01
   3.285  0.127E+01  0.126E+01
   3.335  0.128E+01  0.127E+01
   3.385  0.128E+01  0.127E+01
   3.435  0.125E+01  0.124E+01
   3.485  0.120E+01  0.119E+01
   3.535  0.115E+01  0.114E+01
   3.585  0.108E+01  0.107E+01
   3.635  0.102E+01  0.101E+01
   3.685  0.956E+00  0.948E+00
   3.735  0.898E+00  0.890E+00
   3.785  0.843E+00  0.836E+00
   3.835  0.792E+00  0.784E+00
   3.885  0.743E+00  0.736E+00
   3.935  0.698E+00  0.691E+00
   3.985  0.658E+00  0.651E+00
   4.035  0.624E+00  0.617E+00
   4.085  0.595E+00  0.588E+00
   4.135  0.572E+00  0.565E+00
   4.185  0.554E+00  0.547E+00
   4.235  0.540E+00  0.533E+00
   4.285  0.529E+00  0.522E+00
   4.335  0.520E+00  0.513E+00
   4.385  0.514E+00  0.506E+00
   4.435  0.509E+00  0.502E+00
   4.485  0.507E+00  0.500E+00
   4.535  0.509E+00  0.502E+00
   4.585  0.518E+00  0.510E+00
   4.635  0.535E+00  0.527E+00
   4.685  0.565E+00  0.556E+00
   4.735  0.610E+00  0.600E+00
   4.785  0.673E+00  0.662E+00
   4.835  0.752E+00  0.740E+00
   4.885  0.843E+00  0.829E+00
   4.935  0.939E+00  0.924E+00
   4.985  0.103E+01  0.101E+01
   5.035  0.111E+01  0.109E+01
   5.085  0.116E+01  0.114E+01
   5.135  0.119E+01  0.117E+01
   5.185  0.120E+01  0.118E+01
   5.235  0.118E+01  0.116E+01
   5.285  0.115E+01  0.113E+01
   5.335  0.112E+01  0.110E+01
   5.385  0.108E+01  0.106E+01
   5.435  0.105E+01  0.103E+01
   5.485  0.103E+01  0.101E+01
   5.535  0.102E+01  0.992E+00
   5.585  0.101E+01  0.986E+00
   5.635  0.102E+01  0.990E+00
   5.685  0.103E+01  0.100E+01
   5.735  0.106E+01  0.103E+01
   5.785  0.110E+01  0.106E+01
   5.835  0.114E+01  0.111E+01
   5.885  0.120E+01  0.116E+01
   5.935  0.126E+01  0.122E+01
   5.985  0.131E+01  0.126E+01
   6.035  0.134E+01  0.129E+01
   6.085  0.133E+01  0.129E+01
   6.135  0.129E+01  0.124E+01
   6.185  0.120E+01  0.115E+01
   6.235  0.106E+01  0.103E+01
   6.285  0.905E+00  0.871E+00
   6.335  0.734E+00  0.706E+00
   6.385  0.571E+00  0.548E+00
   6.435  0.434E+00  0.415E+00
   6.485  0.335E+00  0.317E+00
   6.535  0.280E+00  0.260E+00
   6.585  0.269E+00  0.244E+00
   6.635  0.297E+00  0.264E+00
   6.685  0.356E+00  0.313E+00
   6.735  0.436E+00  0.380E+00
   6.785  0.524E+00  0.454E+00
   6.835  0.610E+00  0.527E+00
   6.885  0.683E+00  0.588E+00
   6.935  0.737E+00  0.632E+00
   6.985  0.770E+00  0.658E+00
   7.035  0.781E+00  0.665E+00
   7.085  0.777E+00  0.660E+00
   7.135  0.765E+00  0.646E+00
   7.185  0.750E+00  0.632E+00
   7.235  0.740E+00  0.621E+00
   7.285  0.738E+00  0.618E+00
   7.335  0.747E+00  0.624E+00
   7.385  0.764E+00  0.637E+00
   7.435  0.789E+00  0.658E+00
   7.485  0.819E+00  0.684E+00
   7.535  0.853E+00  0.713E+00
   7.585  0.887E+00  0.744E+00
   7.635  0.920E+00  0.775E+00
   7.685  0.950E+00  0.803E+00
   7.735  0.974E+00  0.825E+00
   7.785  0.989E+00  0.840E+00
   7.835  0.994E+00  0.846E+00
   7.885  0.987E+00  0.841E+00
   7.935  0.971E+00  0.827E+00
   7.985  0.948E+00  0.807E+00
   8.035  0.921E+00  0.782E+00
   8.085  0.893E+00  0.758E+00
   8.135  0.868E+00  0.735E+00
   8.185  0.848E+00  0.717E+00
   8.235  0.835E+00  0.706E+00
   8.285  0.832E+00  0.703E+00
   8.335  0.841E+00  0.713E+00
   8.385  0.868E+00  0.740E+00
   8.435  0.917E+00  0.787E+00
   8.485  0.991E+00  0.859E+00
   8.535  0.109E+01  0.957E+00
   8.585  0.122E+01  0.108E+01
   8.635  0.137E+01  0.122E+01
   8.685  0.151E+01  0.136E+01
   8.735  0.165E+01  0.149E+01
   8.785  0.176E+01  0.160E+01
   8.835  0.183E+01  0.167E+01
   8.885  0.186E+01  0.169E+01
   8.935  0.185E+01  0.168E+01
   8.985  0.181E+01  0.164E+01
   9.035  0.176E+01  0.159E+01
   9.085  0.170E+01  0.152E+01
   9.135  0.164E+01  0.146E+01
   9.185  0.159E+01  0.141E+01
   9.235  0.156E+01  0.138E+01
   9.285  0.156E+01  0.137E+01
   9.335  0.158E+01  0.138E+01
   9.385  0.164E+01  0.141E+01
   9.435  0.172E+01  0.147E+01
   9.485  0.181E+01  0.153E+01
   9.535  0.189E+01  0.160E+01
   9.585  0.195E+01  0.164E+01
   9.635  0.197E+01  0.166E+01
   9.685  0.193E+01  0.162E+01
   9.735  0.185E+01  0.155E+01
   9.785  0.171E+01  0.143E+01
   9.835  0.156E+01  0.129E+01
   9.885  0.139E+01  0.115E+01
   9.935  0.125E+01  0.102E+01
   9.985  0.114E+01  0.917E+00
  10.035  0.108E+01  0.845E+00
  10.085  0.106E+01  0.808E+00
  10.135  0.110E+01  0.804E+00
  10.185  0.117E+01  0.827E+00
  10.235  0.126E+01  0.868E+00
  10.285  0.136E+01  0.915E+00
  10.335  0.145E+01  0.957E+00
  10.385  0.151E+01  0.982E+00
  10.435  0.152E+01  0.983E+00
  10.485  0.148E+01  0.955E+00
  10.535  0.138E+01  0.900E+00
  10.585  0.125E+01  0.824E+00
  10.635  0.110E+01  0.735E+00
  10.685  0.935E+00  0.644E+00
  10.735  0.787E+00  0.559E+00
  10.785  0.662E+00  0.488E+00
  10.835  0.569E+00  0.435E+00
  10.885  0.509E+00  0.402E+00
  10.935  0.481E+00  0.390E+00
  10.985  0.483E+00  0.396E+00
  11.035  0.508E+00  0.419E+00
  11.085  0.551E+00  0.454E+00
  11.135  0.605E+00  0.496E+00
  11.185  0.663E+00  0.541E+00
  11.235  0.718E+00  0.582E+00
  11.285  0.765E+00  0.615E+00
  11.335  0.800E+00  0.639E+00
  11.385  0.824E+00  0.652E+00
  11.435  0.838E+00  0.657E+00
  11.485  0.845E+00  0.656E+00
  11.535  0.850E+00  0.652E+00
  11.585  0.855E+00  0.648E+00
  11.635  0.864E+00  0.646E+00
  11.685  0.875E+00  0.646E+00
  11.735  0.890E+00  0.648E+00
  11.785  0.904E+00  0.650E+00
  11.835  0.914E+00  0.649E+00
  11.885  0.918E+00  0.645E+00
  11.935  0.915E+00  0.636E+00
  11.985  0.903E+00  0.622E+00
  12.035  0.885E+00  0.604E+00
  12.085  0.864E+00  0.584E+00
  12.135  0.841E+00  0.563E+00
  12.185  0.819E+00  0.544E+00
  12.235  0.798E+00  0.526E+00
  12.285  0.778E+00  0.510E+00
  12.335  0.759E+00  0.497E+00
  12.385  0.741E+00  0.485E+00
  12.435  0.722E+00  0.475E+00
  12.485  0.703E+00  0.467E+00
  12.535  0.686E+00  0.460E+00
  12.585  0.669E+00  0.454E+00
  12.635  0.655E+00  0.449E+00
  12.685  0.644E+00  0.444E+00
  12.735  0.635E+00  0.441E+00
  12.785  0.629E+00  0.439E+00
  12.835  0.626E+00  0.438E+00
  12.885  0.625E+00  0.438E+00
  12.935  0.627E+00  0.440E+00
  12.985  0.631E+00  0.443E+00
  13.035  0.637E+00  0.446E+00
  13.085  0.642E+00  0.450E+00
  13.135  0.648E+00  0.454E+00
  13.185  0.652E+00  0.456E+00
  13.235  0.654E+00  0.456E+00
  13.285  0.654E+00  0.453E+00
  13.335  0.651E+00  0.448E+00
  13.385  0.646E+00  0.440E+00
  13.435  0.640E+00  0.430E+00
  13.485  0.634E+00  0.418E+00
  13.535  0.628E+00  0.404E+00
  13.585  0.624E+00  0.389E+00
  13.635  0.623E+00  0.373E+00
  13.685  0.625E+00  0.356E+00
  13.735  0.634E+00  0.341E+00
  13.785  0.648E+00  0.328E+00
  13.835  0.667E+00  0.318E+00
  13.885  0.688E+00  0.312E+00
  13.935  0.705E+00  0.308E+00
  13.985  0.714E+00  0.305E+00
  14.035  0.710E+00  0.301E+00
  14.085  0.689E+00  0.295E+00
  14.135  0.652E+00  0.284E+00
  14.185  0.603E+00  0.270E+00
  14.235  0.544E+00  0.252E+00
  14.285  0.482E+00  0.232E+00
  14.335  0.422E+00  0.212E+00
  14.385  0.367E+00  0.193E+00
  14.435  0.322E+00  0.176E+00
  14.485  0.285E+00  0.163E+00
  14.535  0.258E+00  0.153E+00
  14.585  0.239E+00  0.145E+00
  14.635  0.226E+00  0.140E+00
  14.685  0.219E+00  0.138E+00
  14.735  0.214E+00  0.136E+00
  14.785  0.212E+00  0.135E+00
  14.835  0.211E+00  0.135E+00
  14.885  0.211E+00  0.136E+00
  14.935  0.212E+00  0.136E+00
  14.985  0.212E+00  0.137E+00
  15.035  0.213E+00  0.138E+00
