# E (eV)   ldos(E)   pdos(E)   
  -6.565  0.144E-04  0.144E-04
  -6.515  0.430E-04  0.430E-04
  -6.465  0.121E-03  0.121E-03
  -6.415  0.316E-03  0.316E-03
  -6.365  0.777E-03  0.777E-03
  -6.315  0.179E-02  0.179E-02
  -6.265  0.386E-02  0.386E-02
  -6.215  0.780E-02  0.780E-02
  -6.165  0.148E-01  0.148E-01
  -6.115  0.263E-01  0.263E-01
  -6.065  0.440E-01  0.440E-01
  -6.015  0.690E-01  0.690E-01
  -5.965  0.102E+00  0.102E+00
  -5.915  0.142E+00  0.142E+00
  -5.865  0.186E+00  0.186E+00
  -5.815  0.230E+00  0.230E+00
  -5.765  0.270E+00  0.270E+00
  -5.715  0.300E+00  0.300E+00
  -5.665  0.319E+00  0.319E+00
  -5.615  0.325E+00  0.325E+00
  -5.565  0.318E+00  0.318E+00
  -5.515  0.303E+00  0.303E+00
  -5.465  0.282E+00  0.282E+00
  -5.415  0.259E+00  0.259E+00
  -5.365  0.236E+00  0.236E+00
  -5.315  0.215E+00  0.215E+00
  -5.265  0.197E+00  0.197E+00
  -5.215  0.181E+00  0.181E+00
  -5.165  0.169E+00  0.169E+00
  -5.115  0.158E+00  0.158E+00
  -5.065  0.149E+00  0.149E+00
  -5.015  0.142E+00  0.142E+00
  -4.965  0.135E+00  0.135E+00
  -4.915  0.130E+00  0.130E+00
  -4.865  0.125E+00  0.125E+00
  -4.815  0.121E+00  0.121E+00
  -4.765  0.117E+00  0.117E+00
  -4.715  0.113E+00  0.113E+00
  -4.665  0.110E+00  0.110E+00
  -4.615  0.107E+00  0.107E+00
  -4.565  0.104E+00  0.104E+00
  -4.515  0.102E+00  0.102E+00
  -4.465  0.100E+00  0.100E+00
  -4.415  0.981E-01  0.981E-01
  -4.365  0.963E-01  0.963E-01
  -4.315  0.948E-01  0.948E-01
  -4.265  0.935E-01  0.935E-01
  -4.215  0.923E-01  0.923E-01
  -4.165  0.914E-01  0.914E-01
  -4.115  0.906E-01  0.906E-01
  -4.065  0.901E-01  0.901E-01
  -4.015  0.899E-01  0.899E-01
  -3.965  0.900E-01  0.900E-01
  -3.915  0.905E-01  0.905E-01
  -3.865  0.914E-01  0.914E-01
  -3.815  0.928E-01  0.928E-01
  -3.765  0.946E-01  0.946E-01
  -3.715  0.965E-01  0.965E-01
  -3.665  0.984E-01  0.984E-01
  -3.615  0.996E-01  0.996E-01
  -3.565  0.997E-01  0.997E-01
  -3.515  0.982E-01  0.982E-01
  -3.465  0.949E-01  0.949E-01
  -3.415  0.898E-01  0.898E-01
  -3.365  0.832E-01  0.832E-01
  -3.315  0.757E-01  0.757E-01
  -3.265  0.682E-01  0.682E-01
  -3.215  0.612E-01  0.612E-01
  -3.165  0.553E-01  0.553E-01
  -3.115  0.507E-01  0.507E-01
  -3.065  0.473E-01  0.473E-01
  -3.015  0.450E-01  0.450E-01
  -2.965  0.436E-01  0.436E-01
  -2.915  0.428E-01  0.428E-01
  -2.865  0.424E-01  0.424E-01
  -2.815  0.422E-01  0.422E-01
  -2.765  0.422E-01  0.422E-01
  -2.715  0.424E-01  0.424E-01
  -2.665  0.427E-01  0.427E-01
  -2.615  0.433E-01  0.433E-01
  -2.565  0.443E-01  0.443E-01
  -2.515  0.461E-01  0.461E-01
  -2.465  0.491E-01  0.491E-01
  -2.415  0.541E-01  0.541E-01
  -2.365  0.618E-01  0.618E-01
  -2.315  0.731E-01  0.731E-01
  -2.265  0.887E-01  0.887E-01
  -2.215  0.109E+00  0.109E+00
  -2.165  0.133E+00  0.133E+00
  -2.115  0.159E+00  0.159E+00
  -2.065  0.188E+00  0.188E+00
  -2.015  0.218E+00  0.218E+00
  -1.965  0.249E+00  0.249E+00
  -1.915  0.283E+00  0.283E+00
  -1.865  0.322E+00  0.322E+00
  -1.815  0.367E+00  0.367E+00
  -1.765  0.419E+00  0.419E+00
  -1.715  0.475E+00  0.475E+00
  -1.665  0.530E+00  0.530E+00
  -1.615  0.576E+00  0.576E+00
  -1.565  0.605E+00  0.605E+00
  -1.515  0.612E+00  0.612E+00
  -1.465  0.596E+00  0.596E+00
  -1.415  0.559E+00  0.559E+00
  -1.365  0.508E+00  0.508E+00
  -1.315  0.452E+00  0.452E+00
  -1.265  0.398E+00  0.398E+00
  -1.215  0.351E+00  0.351E+00
  -1.165  0.311E+00  0.311E+00
  -1.115  0.279E+00  0.279E+00
  -1.065  0.250E+00  0.250E+00
  -1.015  0.223E+00  0.223E+00
  -0.965  0.196E+00  0.196E+00
  -0.915  0.169E+00  0.169E+00
  -0.865  0.143E+00  0.143E+00
  -0.815  0.119E+00  0.119E+00
  -0.765  0.981E-01  0.981E-01
  -0.715  0.817E-01  0.817E-01
  -0.665  0.694E-01  0.694E-01
  -0.615  0.606E-01  0.606E-01
  -0.565  0.546E-01  0.546E-01
  -0.515  0.504E-01  0.504E-01
  -0.465  0.475E-01  0.475E-01
  -0.415  0.453E-01  0.453E-01
  -0.365  0.437E-01  0.437E-01
  -0.315  0.423E-01  0.423E-01
  -0.265  0.412E-01  0.412E-01
  -0.215  0.403E-01  0.403E-01
  -0.165  0.395E-01  0.395E-01
  -0.115  0.388E-01  0.388E-01
  -0.065  0.381E-01  0.381E-01
  -0.015  0.375E-01  0.375E-01
   0.035  0.370E-01  0.370E-01
   0.085  0.364E-01  0.364E-01
   0.135  0.360E-01  0.360E-01
   0.185  0.355E-01  0.355E-01
   0.235  0.350E-01  0.350E-01
   0.285  0.346E-01  0.346E-01
   0.335  0.342E-01  0.342E-01
   0.385  0.338E-01  0.338E-01
   0.435  0.335E-01  0.335E-01
   0.485  0.331E-01  0.331E-01
   0.535  0.327E-01  0.327E-01
   0.585  0.324E-01  0.324E-01
   0.635  0.321E-01  0.321E-01
   0.685  0.317E-01  0.317E-01
   0.735  0.314E-01  0.314E-01
   0.785  0.311E-01  0.311E-01
   0.835  0.308E-01  0.308E-01
   0.885  0.305E-01  0.305E-01
   0.935  0.303E-01  0.303E-01
   0.985  0.300E-01  0.300E-01
   1.035  0.297E-01  0.297E-01
   1.085  0.295E-01  0.295E-01
   1.135  0.292E-01  0.292E-01
   1.185  0.289E-01  0.289E-01
   1.235  0.287E-01  0.287E-01
   1.285  0.285E-01  0.285E-01
   1.335  0.282E-01  0.282E-01
   1.385  0.280E-01  0.280E-01
   1.435  0.279E-01  0.279E-01
   1.485  0.277E-01  0.277E-01
   1.535  0.276E-01  0.276E-01
   1.585  0.276E-01  0.276E-01
   1.635  0.276E-01  0.276E-01
   1.685  0.277E-01  0.277E-01
   1.735  0.278E-01  0.278E-01
   1.785  0.279E-01  0.279E-01
   1.835  0.280E-01  0.280E-01
   1.885  0.280E-01  0.280E-01
   1.935  0.281E-01  0.281E-01
   1.985  0.281E-01  0.281E-01
   2.035  0.280E-01  0.280E-01
   2.085  0.279E-01  0.279E-01
   2.135  0.279E-01  0.279E-01
   2.185  0.279E-01  0.279E-01
   2.235  0.279E-01  0.279E-01
   2.285  0.279E-01  0.279E-01
   2.335  0.280E-01  0.280E-01
   2.385  0.282E-01  0.282E-01
   2.435  0.283E-01  0.283E-01
   2.485  0.285E-01  0.285E-01
   2.535  0.287E-01  0.287E-01
   2.585  0.289E-01  0.289E-01
   2.635  0.290E-01  0.290E-01
   2.685  0.291E-01  0.291E-01
   2.735  0.291E-01  0.291E-01
   2.785  0.291E-01  0.291E-01
   2.835  0.290E-01  0.290E-01
   2.885  0.288E-01  0.288E-01
   2.935  0.286E-01  0.286E-01
   2.985  0.284E-01  0.284E-01
   3.035  0.281E-01  0.281E-01
   3.085  0.277E-01  0.277E-01
   3.135  0.272E-01  0.272E-01
   3.185  0.268E-01  0.268E-01
   3.235  0.263E-01  0.263E-01
   3.285  0.257E-01  0.257E-01
   3.335  0.252E-01  0.252E-01
   3.385  0.246E-01  0.246E-01
   3.435  0.241E-01  0.241E-01
   3.485  0.236E-01  0.236E-01
   3.535  0.231E-01  0.231E-01
   3.585  0.226E-01  0.226E-01
   3.635  0.222E-01  0.222E-01
   3.685  0.218E-01  0.218E-01
   3.735  0.214E-01  0.214E-01
   3.785  0.211E-01  0.211E-01
   3.835  0.207E-01  0.207E-01
   3.885  0.204E-01  0.204E-01
   3.935  0.201E-01  0.201E-01
   3.985  0.198E-01  0.198E-01
   4.035  0.195E-01  0.195E-01
   4.085  0.192E-01  0.192E-01
   4.135  0.189E-01  0.189E-01
   4.185  0.187E-01  0.187E-01
   4.235  0.184E-01  0.184E-01
   4.285  0.181E-01  0.181E-01
   4.335  0.179E-01  0.179E-01
   4.385  0.176E-01  0.176E-01
   4.435  0.173E-01  0.173E-01
   4.485  0.171E-01  0.171E-01
   4.535  0.168E-01  0.168E-01
   4.585  0.165E-01  0.165E-01
   4.635  0.162E-01  0.162E-01
   4.685  0.159E-01  0.159E-01
   4.735  0.156E-01  0.156E-01
   4.785  0.153E-01  0.153E-01
   4.835  0.151E-01  0.151E-01
   4.885  0.147E-01  0.147E-01
   4.935  0.144E-01  0.144E-01
   4.985  0.141E-01  0.141E-01
   5.035  0.138E-01  0.138E-01
   5.085  0.135E-01  0.135E-01
   5.135  0.132E-01  0.132E-01
   5.185  0.128E-01  0.128E-01
   5.235  0.125E-01  0.125E-01
   5.285  0.121E-01  0.121E-01
   5.335  0.118E-01  0.118E-01
   5.385  0.114E-01  0.114E-01
   5.435  0.110E-01  0.110E-01
   5.485  0.106E-01  0.106E-01
   5.535  0.102E-01  0.102E-01
   5.585  0.980E-02  0.980E-02
   5.635  0.937E-02  0.937E-02
   5.685  0.890E-02  0.890E-02
   5.735  0.842E-02  0.842E-02
   5.785  0.790E-02  0.790E-02
   5.835  0.735E-02  0.735E-02
   5.885  0.675E-02  0.675E-02
   5.935  0.612E-02  0.612E-02
   5.985  0.544E-02  0.544E-02
   6.035  0.475E-02  0.475E-02
   6.085  0.405E-02  0.405E-02
   6.135  0.339E-02  0.339E-02
   6.185  0.284E-02  0.284E-02
   6.235  0.248E-02  0.248E-02
   6.285  0.248E-02  0.248E-02
   6.335  0.306E-02  0.306E-02
   6.385  0.455E-02  0.455E-02
   6.435  0.736E-02  0.736E-02
   6.485  0.120E-01  0.120E-01
   6.535  0.189E-01  0.189E-01
   6.585  0.284E-01  0.284E-01
   6.635  0.406E-01  0.406E-01
   6.685  0.550E-01  0.550E-01
   6.735  0.708E-01  0.708E-01
   6.785  0.868E-01  0.868E-01
   6.835  0.101E+00  0.101E+00
   6.885  0.113E+00  0.113E+00
   6.935  0.122E+00  0.122E+00
   6.985  0.126E+00  0.126E+00
   7.035  0.127E+00  0.127E+00
   7.085  0.125E+00  0.125E+00
   7.135  0.122E+00  0.122E+00
   7.185  0.118E+00  0.118E+00
   7.235  0.114E+00  0.114E+00
   7.285  0.112E+00  0.112E+00
   7.335  0.113E+00  0.113E+00
   7.385  0.115E+00  0.115E+00
   7.435  0.120E+00  0.120E+00
   7.485  0.127E+00  0.127E+00
   7.535  0.136E+00  0.136E+00
   7.585  0.146E+00  0.146E+00
   7.635  0.158E+00  0.158E+00
   7.685  0.169E+00  0.169E+00
   7.735  0.179E+00  0.179E+00
   7.785  0.185E+00  0.185E+00
   7.835  0.188E+00  0.188E+00
   7.885  0.187E+00  0.187E+00
   7.935  0.182E+00  0.182E+00
   7.985  0.175E+00  0.175E+00
   8.035  0.165E+00  0.165E+00
   8.085  0.155E+00  0.155E+00
   8.135  0.145E+00  0.145E+00
   8.185  0.136E+00  0.136E+00
   8.235  0.128E+00  0.128E+00
   8.285  0.121E+00  0.121E+00
   8.335  0.115E+00  0.115E+00
   8.385  0.110E+00  0.110E+00
   8.435  0.105E+00  0.105E+00
   8.485  0.101E+00  0.101E+00
   8.535  0.978E-01  0.978E-01
   8.585  0.946E-01  0.946E-01
   8.635  0.915E-01  0.915E-01
   8.685  0.886E-01  0.886E-01
   8.735  0.860E-01  0.860E-01
   8.785  0.837E-01  0.837E-01
   8.835  0.820E-01  0.820E-01
   8.885  0.811E-01  0.811E-01
   8.935  0.812E-01  0.812E-01
   8.985  0.821E-01  0.821E-01
   9.035  0.838E-01  0.838E-01
   9.085  0.860E-01  0.860E-01
   9.135  0.882E-01  0.882E-01
   9.185  0.904E-01  0.904E-01
   9.235  0.928E-01  0.928E-01
   9.285  0.959E-01  0.959E-01
   9.335  0.101E+00  0.101E+00
   9.385  0.107E+00  0.107E+00
   9.435  0.116E+00  0.116E+00
   9.485  0.127E+00  0.127E+00
   9.535  0.138E+00  0.138E+00
   9.585  0.148E+00  0.148E+00
   9.635  0.156E+00  0.156E+00
   9.685  0.159E+00  0.159E+00
   9.735  0.159E+00  0.159E+00
   9.785  0.154E+00  0.154E+00
   9.835  0.147E+00  0.147E+00
   9.885  0.139E+00  0.139E+00
   9.935  0.131E+00  0.131E+00
   9.985  0.125E+00  0.125E+00
  10.035  0.121E+00  0.121E+00
  10.085  0.119E+00  0.119E+00
  10.135  0.120E+00  0.120E+00
  10.185  0.123E+00  0.123E+00
  10.235  0.127E+00  0.127E+00
  10.285  0.131E+00  0.131E+00
  10.335  0.135E+00  0.135E+00
  10.385  0.136E+00  0.136E+00
  10.435  0.135E+00  0.135E+00
  10.485  0.130E+00  0.130E+00
  10.535  0.122E+00  0.122E+00
  10.585  0.112E+00  0.112E+00
  10.635  0.999E-01  0.999E-01
  10.685  0.875E-01  0.875E-01
  10.735  0.758E-01  0.758E-01
  10.785  0.656E-01  0.656E-01
  10.835  0.579E-01  0.579E-01
  10.885  0.530E-01  0.530E-01
  10.935  0.512E-01  0.512E-01
  10.985  0.524E-01  0.524E-01
  11.035  0.564E-01  0.564E-01
  11.085  0.625E-01  0.625E-01
  11.135  0.698E-01  0.698E-01
  11.185  0.773E-01  0.773E-01
  11.235  0.842E-01  0.842E-01
  11.285  0.896E-01  0.896E-01
  11.335  0.930E-01  0.930E-01
  11.385  0.946E-01  0.946E-01
  11.435  0.945E-01  0.945E-01
  11.485  0.935E-01  0.935E-01
  11.535  0.920E-01  0.920E-01
  11.585  0.908E-01  0.908E-01
  11.635  0.900E-01  0.900E-01
  11.685  0.898E-01  0.898E-01
  11.735  0.899E-01  0.899E-01
  11.785  0.901E-01  0.901E-01
  11.835  0.899E-01  0.899E-01
  11.885  0.888E-01  0.888E-01
  11.935  0.868E-01  0.868E-01
  11.985  0.837E-01  0.837E-01
  12.035  0.798E-01  0.798E-01
  12.085  0.754E-01  0.754E-01
  12.135  0.709E-01  0.709E-01
  12.185  0.666E-01  0.666E-01
  12.235  0.627E-01  0.627E-01
  12.285  0.593E-01  0.593E-01
  12.335  0.563E-01  0.563E-01
  12.385  0.537E-01  0.537E-01
  12.435  0.515E-01  0.515E-01
  12.485  0.496E-01  0.496E-01
  12.535  0.479E-01  0.479E-01
  12.585  0.464E-01  0.464E-01
  12.635  0.451E-01  0.451E-01
  12.685  0.439E-01  0.439E-01
  12.735  0.429E-01  0.429E-01
  12.785  0.420E-01  0.420E-01
  12.835  0.413E-01  0.413E-01
  12.885  0.408E-01  0.408E-01
  12.935  0.405E-01  0.405E-01
  12.985  0.404E-01  0.404E-01
  13.035  0.404E-01  0.404E-01
  13.085  0.403E-01  0.403E-01
  13.135  0.401E-01  0.401E-01
  13.185  0.397E-01  0.397E-01
  13.235  0.388E-01  0.388E-01
  13.285  0.375E-01  0.375E-01
  13.335  0.357E-01  0.357E-01
  13.385  0.336E-01  0.336E-01
  13.435  0.313E-01  0.313E-01
  13.485  0.290E-01  0.290E-01
  13.535  0.267E-01  0.267E-01
  13.585  0.247E-01  0.247E-01
  13.635  0.230E-01  0.230E-01
  13.685  0.218E-01  0.218E-01
  13.735  0.211E-01  0.211E-01
  13.785  0.210E-01  0.210E-01
  13.835  0.214E-01  0.214E-01
  13.885  0.221E-01  0.221E-01
  13.935  0.230E-01  0.230E-01
  13.985  0.238E-01  0.238E-01
  14.035  0.242E-01  0.242E-01
  14.085  0.240E-01  0.240E-01
  14.135  0.231E-01  0.231E-01
  14.185  0.215E-01  0.215E-01
  14.235  0.194E-01  0.194E-01
  14.285  0.169E-01  0.169E-01
  14.335  0.143E-01  0.143E-01
  14.385  0.118E-01  0.118E-01
  14.435  0.955E-02  0.955E-02
  14.485  0.768E-02  0.768E-02
  14.535  0.622E-02  0.622E-02
  14.585  0.514E-02  0.514E-02
  14.635  0.438E-02  0.438E-02
  14.685  0.387E-02  0.387E-02
  14.735  0.353E-02  0.353E-02
  14.785  0.331E-02  0.331E-02
  14.835  0.316E-02  0.316E-02
  14.885  0.304E-02  0.304E-02
  14.935  0.295E-02  0.295E-02
  14.985  0.287E-02  0.287E-02
  15.035  0.279E-02  0.279E-02
