#  E (eV)   dos(E)     Int dos(E) EFermi =    6.220 eV
 -15.000 -0.2912E-81 -0.5825E-83
 -14.980 -0.2907E-81 -0.1164E-82
 -14.960 -0.2902E-81 -0.1744E-82
 -14.940 -0.2897E-81 -0.2324E-82
 -14.920 -0.2892E-81 -0.2902E-82
 -14.900 -0.2886E-81 -0.3479E-82
 -14.880 -0.2881E-81 -0.4056E-82
 -14.860 -0.2876E-81 -0.4631E-82
 -14.840 -0.2871E-81 -0.5205E-82
 -14.820 -0.2866E-81 -0.5778E-82
 -14.800 -0.2861E-81 -0.6350E-82
 -14.780 -0.2855E-81 -0.6921E-82
 -14.760 -0.2850E-81 -0.7491E-82
 -14.740 -0.2845E-81 -0.8060E-82
 -14.720 -0.2840E-81 -0.8628E-82
 -14.700 -0.2835E-81 -0.9195E-82
 -14.680 -0.2830E-81 -0.9761E-82
 -14.660 -0.2825E-81 -0.1033E-81
 -14.640 -0.2820E-81 -0.1089E-81
 -14.620 -0.2814E-81 -0.1145E-81
 -14.600 -0.2809E-81 -0.1201E-81
 -14.580 -0.2804E-81 -0.1258E-81
 -14.560 -0.2799E-81 -0.1314E-81
 -14.540 -0.2794E-81 -0.1369E-81
 -14.520 -0.2789E-81 -0.1425E-81
 -14.500 -0.2784E-81 -0.1481E-81
 -14.480 -0.2779E-81 -0.1536E-81
 -14.460 -0.2774E-81 -0.1592E-81
 -14.440 -0.2769E-81 -0.1647E-81
 -14.420 -0.2764E-81 -0.1703E-81
 -14.400 -0.2759E-81 -0.1758E-81
 -14.380 -0.2754E-81 -0.1813E-81
 -14.360 -0.2748E-81 -0.1868E-81
 -14.340 -0.2743E-81 -0.1923E-81
 -14.320 -0.2738E-81 -0.1977E-81
 -14.300 -0.2733E-81 -0.2032E-81
 -14.280 -0.2728E-81 -0.2087E-81
 -14.260 -0.2723E-81 -0.2141E-81
 -14.240 -0.2718E-81 -0.2196E-81
 -14.220 -0.2713E-81 -0.2250E-81
 -14.200 -0.2708E-81 -0.2304E-81
 -14.180 -0.2703E-81 -0.2358E-81
 -14.160 -0.2698E-81 -0.2412E-81
 -14.140 -0.2693E-81 -0.2466E-81
 -14.120 -0.2688E-81 -0.2520E-81
 -14.100 -0.2683E-81 -0.2573E-81
 -14.080 -0.2678E-81 -0.2627E-81
 -14.060 -0.2673E-81 -0.2680E-81
 -14.040 -0.2668E-81 -0.2734E-81
 -14.020 -0.2663E-81 -0.2787E-81
 -14.000 -0.2658E-81 -0.2840E-81
 -13.980 -0.2654E-81 -0.2893E-81
 -13.960 -0.2649E-81 -0.2946E-81
 -13.940 -0.2644E-81 -0.2999E-81
 -13.920 -0.2639E-81 -0.3052E-81
 -13.900 -0.2634E-81 -0.3104E-81
 -13.880 -0.2629E-81 -0.3157E-81
 -13.860 -0.2624E-81 -0.3210E-81
 -13.840 -0.2619E-81 -0.3262E-81
 -13.820 -0.2614E-81 -0.3314E-81
 -13.800 -0.2609E-81 -0.3366E-81
 -13.780 -0.2604E-81 -0.3418E-81
 -13.760 -0.2599E-81 -0.3470E-81
 -13.740 -0.2595E-81 -0.3522E-81
 -13.720 -0.2590E-81 -0.3574E-81
 -13.700 -0.2585E-81 -0.3626E-81
 -13.680 -0.2580E-81 -0.3677E-81
 -13.660 -0.2575E-81 -0.3729E-81
 -13.640 -0.2570E-81 -0.3780E-81
 -13.620 -0.2565E-81 -0.3832E-81
 -13.600 -0.2560E-81 -0.3883E-81
 -13.580 -0.2556E-81 -0.3934E-81
 -13.560 -0.2551E-81 -0.3985E-81
 -13.540 -0.2546E-81 -0.4036E-81
 -13.520 -0.2541E-81 -0.4087E-81
 -13.500 -0.2536E-81 -0.4137E-81
 -13.480 -0.2531E-81 -0.4188E-81
 -13.460 -0.2527E-81 -0.4239E-81
 -13.440 -0.2522E-81 -0.4289E-81
 -13.420 -0.2517E-81 -0.4339E-81
 -13.400 -0.2512E-81 -0.4390E-81
 -13.380 -0.2507E-81 -0.4440E-81
 -13.360 -0.2503E-81 -0.4490E-81
 -13.340 -0.2498E-81 -0.4540E-81
 -13.320 -0.2493E-81 -0.4590E-81
 -13.300 -0.2488E-81 -0.4639E-81
 -13.280 -0.2483E-81 -0.4689E-81
 -13.260 -0.2479E-81 -0.4739E-81
 -13.240 -0.2474E-81 -0.4788E-81
 -13.220 -0.2469E-81 -0.4837E-81
 -13.200 -0.2464E-81 -0.4887E-81
 -13.180 -0.2460E-81 -0.4936E-81
 -13.160 -0.2455E-81 -0.4985E-81
 -13.140 -0.2450E-81 -0.5034E-81
 -13.120 -0.2445E-81 -0.5083E-81
 -13.100 -0.2441E-81 -0.5132E-81
 -13.080 -0.2436E-81 -0.5180E-81
 -13.060 -0.2431E-81 -0.5229E-81
 -13.040 -0.2426E-81 -0.5278E-81
 -13.020 -0.2422E-81 -0.5326E-81
 -13.000 -0.2417E-81 -0.5374E-81
 -12.980 -0.2412E-81 -0.5423E-81
 -12.960 -0.2408E-81 -0.5471E-81
 -12.940 -0.2403E-81 -0.5519E-81
 -12.920 -0.2398E-81 -0.5567E-81
 -12.900 -0.2394E-81 -0.5615E-81
 -12.880 -0.2389E-81 -0.5662E-81
 -12.860 -0.2384E-81 -0.5710E-81
 -12.840 -0.2380E-81 -0.5758E-81
 -12.820 -0.2375E-81 -0.5805E-81
 -12.800 -0.2370E-81 -0.5853E-81
 -12.780 -0.2366E-81 -0.5900E-81
 -12.760 -0.2361E-81 -0.5947E-81
 -12.740 -0.2356E-81 -0.5994E-81
 -12.720 -0.2352E-81 -0.6041E-81
 -12.700 -0.2347E-81 -0.6088E-81
 -12.680 -0.2342E-81 -0.6135E-81
 -12.660 -0.2338E-81 -0.6182E-81
 -12.640 -0.2333E-81 -0.6229E-81
 -12.620 -0.2328E-81 -0.6275E-81
 -12.600 -0.2324E-81 -0.6322E-81
 -12.580 -0.2319E-81 -0.6368E-81
 -12.560 -0.2315E-81 -0.6414E-81
 -12.540 -0.2310E-81 -0.6460E-81
 -12.520 -0.2305E-81 -0.6507E-81
 -12.500 -0.2301E-81 -0.6553E-81
 -12.480 -0.2296E-81 -0.6599E-81
 -12.460 -0.2292E-81 -0.6644E-81
 -12.440 -0.2287E-81 -0.6690E-81
 -12.420 -0.2283E-81 -0.6736E-81
 -12.400 -0.2278E-81 -0.6781E-81
 -12.380 -0.2274E-81 -0.6827E-81
 -12.360 -0.2269E-81 -0.6872E-81
 -12.340 -0.2264E-81 -0.6917E-81
 -12.320 -0.2260E-81 -0.6963E-81
 -12.300 -0.2255E-81 -0.7008E-81
 -12.280 -0.2251E-81 -0.7053E-81
 -12.260 -0.2246E-81 -0.7098E-81
 -12.240 -0.2242E-81 -0.7143E-81
 -12.220 -0.2237E-81 -0.7187E-81
 -12.200 -0.2233E-81 -0.7232E-81
 -12.180 -0.2228E-81 -0.7277E-81
 -12.160 -0.2224E-81 -0.7321E-81
 -12.140 -0.2219E-81 -0.7365E-81
 -12.120 -0.2215E-81 -0.7410E-81
 -12.100 -0.2210E-81 -0.7454E-81
 -12.080 -0.2206E-81 -0.7498E-81
 -12.060 -0.2201E-81 -0.7542E-81
 -12.040 -0.2197E-81 -0.7586E-81
 -12.020 -0.2192E-81 -0.7630E-81
 -12.000 -0.2188E-81 -0.7674E-81
 -11.980 -0.2183E-81 -0.7717E-81
 -11.960 -0.2179E-81 -0.7761E-81
 -11.940 -0.2175E-81 -0.7804E-81
 -11.920 -0.2170E-81 -0.7848E-81
 -11.900 -0.2166E-81 -0.7891E-81
 -11.880 -0.2161E-81 -0.7934E-81
 -11.860 -0.2157E-81 -0.7977E-81
 -11.840 -0.2152E-81 -0.8020E-81
 -11.820 -0.2148E-81 -0.8063E-81
 -11.800 -0.2144E-81 -0.8106E-81
 -11.780 -0.2139E-81 -0.8149E-81
 -11.760 -0.2135E-81 -0.8192E-81
 -11.740 -0.2130E-81 -0.8234E-81
 -11.720 -0.2126E-81 -0.8277E-81
 -11.700 -0.2122E-81 -0.8319E-81
 -11.680 -0.2117E-81 -0.8362E-81
 -11.660 -0.2113E-81 -0.8404E-81
 -11.640 -0.2108E-81 -0.8446E-81
 -11.620 -0.2104E-81 -0.8488E-81
 -11.600 -0.2100E-81 -0.8530E-81
 -11.580 -0.2095E-81 -0.8572E-81
 -11.560 -0.2091E-81 -0.8614E-81
 -11.540 -0.2087E-81 -0.8656E-81
 -11.520 -0.2082E-81 -0.8697E-81
 -11.500 -0.2078E-81 -0.8739E-81
 -11.480 -0.2074E-81 -0.8780E-81
 -11.460 -0.2069E-81 -0.8822E-81
 -11.440 -0.2065E-81 -0.8863E-81
 -11.420 -0.2061E-81 -0.8904E-81
 -11.400 -0.2056E-81 -0.8945E-81
 -11.380 -0.2052E-81 -0.8986E-81
 -11.360 -0.2048E-81 -0.9027E-81
 -11.340 -0.2044E-81 -0.9068E-81
 -11.320 -0.2039E-81 -0.9109E-81
 -11.300 -0.2035E-81 -0.9150E-81
 -11.280 -0.2031E-81 -0.9190E-81
 -11.260 -0.2026E-81 -0.9231E-81
 -11.240 -0.2022E-81 -0.9271E-81
 -11.220 -0.2018E-81 -0.9312E-81
 -11.200 -0.2014E-81 -0.9352E-81
 -11.180 -0.2009E-81 -0.9392E-81
 -11.160 -0.2005E-81 -0.9432E-81
 -11.140 -0.2001E-81 -0.9472E-81
 -11.120 -0.1997E-81 -0.9512E-81
 -11.100 -0.1992E-81 -0.9552E-81
 -11.080 -0.1988E-81 -0.9592E-81
 -11.060 -0.1984E-81 -0.9631E-81
 -11.040 -0.1980E-81 -0.9671E-81
 -11.020 -0.1975E-81 -0.9711E-81
 -11.000 -0.1971E-81 -0.9750E-81
 -10.980 -0.1967E-81 -0.9789E-81
 -10.960 -0.1963E-81 -0.9829E-81
 -10.940 -0.1959E-81 -0.9868E-81
 -10.920 -0.1954E-81 -0.9907E-81
 -10.900 -0.1950E-81 -0.9946E-81
 -10.880 -0.1946E-81 -0.9985E-81
 -10.860 -0.1942E-81 -0.1002E-80
 -10.840 -0.1938E-81 -0.1006E-80
 -10.820 -0.1934E-81 -0.1010E-80
 -10.800 -0.1929E-81 -0.1014E-80
 -10.780 -0.1925E-81 -0.1018E-80
 -10.760 -0.1921E-81 -0.1022E-80
 -10.740 -0.1917E-81 -0.1025E-80
 -10.720 -0.1913E-81 -0.1029E-80
 -10.700 -0.1909E-81 -0.1033E-80
 -10.680 -0.1905E-81 -0.1037E-80
 -10.660 -0.1900E-81 -0.1041E-80
 -10.640 -0.1896E-81 -0.1045E-80
 -10.620 -0.1892E-81 -0.1048E-80
 -10.600 -0.1888E-81 -0.1052E-80
 -10.580 -0.1884E-81 -0.1056E-80
 -10.560 -0.1880E-81 -0.1060E-80
 -10.540 -0.1876E-81 -0.1063E-80
 -10.520 -0.1872E-81 -0.1067E-80
 -10.500 -0.1868E-81 -0.1071E-80
 -10.480 -0.1863E-81 -0.1075E-80
 -10.460 -0.1859E-81 -0.1078E-80
 -10.440 -0.1855E-81 -0.1082E-80
 -10.420 -0.1851E-81 -0.1086E-80
 -10.400 -0.1847E-81 -0.1089E-80
 -10.380 -0.1843E-81 -0.1093E-80
 -10.360 -0.1839E-81 -0.1097E-80
 -10.340 -0.1835E-81 -0.1100E-80
 -10.320 -0.1831E-81 -0.1104E-80
 -10.300 -0.1827E-81 -0.1108E-80
 -10.280 -0.1823E-81 -0.1111E-80
 -10.260 -0.1819E-81 -0.1115E-80
 -10.240 -0.1815E-81 -0.1119E-80
 -10.220 -0.1811E-81 -0.1122E-80
 -10.200 -0.1807E-81 -0.1126E-80
 -10.180 -0.1803E-81 -0.1130E-80
 -10.160 -0.1799E-81 -0.1133E-80
 -10.140 -0.1795E-81 -0.1137E-80
 -10.120 -0.1791E-81 -0.1140E-80
 -10.100 -0.1787E-81 -0.1144E-80
 -10.080 -0.1783E-81 -0.1147E-80
 -10.060 -0.1779E-81 -0.1151E-80
 -10.040 -0.1775E-81 -0.1155E-80
 -10.020 -0.1771E-81 -0.1158E-80
 -10.000 -0.1767E-81 -0.1162E-80
  -9.980 -0.1763E-81 -0.1165E-80
  -9.960 -0.1759E-81 -0.1169E-80
  -9.940 -0.1755E-81 -0.1172E-80
  -9.920 -0.1751E-81 -0.1176E-80
  -9.900 -0.1747E-81 -0.1179E-80
  -9.880 -0.1743E-81 -0.1183E-80
  -9.860 -0.1739E-81 -0.1186E-80
  -9.840 -0.1735E-81 -0.1190E-80
  -9.820 -0.1731E-81 -0.1193E-80
  -9.800 -0.1728E-81 -0.1196E-80
  -9.780 -0.1724E-81 -0.1200E-80
  -9.760 -0.1720E-81 -0.1203E-80
  -9.740 -0.1716E-81 -0.1207E-80
  -9.720 -0.1712E-81 -0.1210E-80
  -9.700 -0.1708E-81 -0.1214E-80
  -9.680 -0.1704E-81 -0.1217E-80
  -9.660 -0.1700E-81 -0.1220E-80
  -9.640 -0.1696E-81 -0.1224E-80
  -9.620 -0.1693E-81 -0.1227E-80
  -9.600 -0.1689E-81 -0.1231E-80
  -9.580 -0.1686E-81 -0.1234E-80
  -9.560 -0.1695E-81 -0.1237E-80
  -9.540 -0.1790E-81 -0.1241E-80
  -9.520 -0.2546E-81 -0.1246E-80
  -9.500 -0.8275E-81 -0.1263E-80
  -9.480 -0.5110E-80 -0.1365E-80
  -9.460 -0.3676E-79 -0.2100E-80
  -9.440 -0.2681E-78 -0.7463E-80
  -9.420 -0.1941E-77 -0.4629E-79
  -9.400 -0.1391E-76 -0.3244E-78
  -9.380 -0.9858E-76 -0.2296E-77
  -9.360 -0.6911E-75 -0.1612E-76
  -9.340 -0.4794E-74 -0.1120E-75
  -9.320 -0.3289E-73 -0.7698E-75
  -9.300 -0.2232E-72 -0.5234E-74
  -9.280 -0.1498E-71 -0.3520E-73
  -9.260 -0.9951E-71 -0.2342E-72
  -9.240 -0.6537E-70 -0.1542E-71
  -9.220 -0.4248E-69 -0.1004E-70
  -9.200 -0.2731E-68 -0.6466E-70
  -9.180 -0.1737E-67 -0.4120E-69
  -9.160 -0.1092E-66 -0.2597E-68
  -9.140 -0.6797E-66 -0.1619E-67
  -9.120 -0.4183E-65 -0.9986E-67
  -9.100 -0.2547E-64 -0.6093E-66
  -9.080 -0.1534E-63 -0.3677E-65
  -9.060 -0.9139E-63 -0.2196E-64
  -9.040 -0.5386E-62 -0.1297E-63
  -9.020 -0.3140E-61 -0.7577E-63
  -9.000 -0.1811E-60 -0.4379E-62
  -8.980 -0.1033E-59 -0.2504E-61
  -8.960 -0.5829E-59 -0.1416E-60
  -8.940 -0.3253E-58 -0.7923E-60
  -8.920 -0.1796E-57 -0.4385E-59
  -8.900 -0.9811E-57 -0.2401E-58
  -8.880 -0.5301E-56 -0.1300E-57
  -8.860 -0.2833E-55 -0.6966E-57
  -8.840 -0.1498E-54 -0.3692E-56
  -8.820 -0.7832E-54 -0.1936E-55
  -8.800 -0.4051E-53 -0.1004E-54
  -8.780 -0.2073E-52 -0.5150E-54
  -8.760 -0.1049E-51 -0.2614E-53
  -8.740 -0.5254E-51 -0.1312E-52
  -8.720 -0.2602E-50 -0.6516E-52
  -8.700 -0.1275E-49 -0.3201E-51
  -8.680 -0.6178E-49 -0.1556E-50
  -8.660 -0.2961E-48 -0.7478E-50
  -8.640 -0.1404E-47 -0.3556E-49
  -8.620 -0.6587E-47 -0.1673E-48
  -8.600 -0.3056E-46 -0.7785E-48
  -8.580 -0.1403E-45 -0.3584E-47
  -8.560 -0.6368E-45 -0.1632E-46
  -8.540 -0.2860E-44 -0.7351E-46
  -8.520 -0.1270E-43 -0.3276E-45
  -8.500 -0.5582E-43 -0.1444E-44
  -8.480 -0.2426E-42 -0.6296E-44
  -8.460 -0.1043E-41 -0.2716E-43
  -8.440 -0.4436E-41 -0.1159E-42
  -8.420 -0.1866E-40 -0.4891E-42
  -8.400 -0.7765E-40 -0.2042E-41
  -8.380 -0.3196E-39 -0.8434E-41
  -8.360 -0.1301E-38 -0.3446E-40
  -8.340 -0.5240E-38 -0.1393E-39
  -8.320 -0.2088E-37 -0.5568E-39
  -8.300 -0.8226E-37 -0.2202E-38
  -8.280 -0.3206E-36 -0.8615E-38
  -8.260 -0.1236E-35 -0.3334E-37
  -8.240 -0.4714E-35 -0.1276E-36
  -8.220 -0.1778E-34 -0.4833E-36
  -8.200 -0.6636E-34 -0.1811E-35
  -8.180 -0.2449E-33 -0.6709E-35
  -8.160 -0.8942E-33 -0.2459E-34
  -8.140 -0.3229E-32 -0.8917E-34
  -8.120 -0.1153E-31 -0.3198E-33
  -8.100 -0.4075E-31 -0.1135E-32
  -8.080 -0.1424E-30 -0.3983E-32
  -8.060 -0.4923E-30 -0.1383E-31
  -8.040 -0.1683E-29 -0.4750E-31
  -8.020 -0.5693E-29 -0.1614E-30
  -8.000 -0.1905E-28 -0.5423E-30
  -7.980 -0.6302E-28 -0.1803E-29
  -7.960 -0.2063E-27 -0.5928E-29
  -7.940 -0.6678E-27 -0.1928E-28
  -7.920 -0.2138E-26 -0.6205E-28
  -7.900 -0.6773E-26 -0.1975E-27
  -7.880 -0.2122E-25 -0.6218E-27
  -7.860 -0.6575E-25 -0.1937E-26
  -7.840 -0.2015E-24 -0.5967E-26
  -7.820 -0.6109E-24 -0.1818E-25
  -7.800 -0.1832E-23 -0.5482E-25
  -7.780 -0.5433E-23 -0.1635E-24
  -7.760 -0.1594E-22 -0.4822E-24
  -7.740 -0.4624E-22 -0.1407E-23
  -7.720 -0.1327E-21 -0.4061E-23
  -7.700 -0.3767E-21 -0.1159E-22
  -7.680 -0.1058E-20 -0.3275E-22
  -7.660 -0.2937E-20 -0.9148E-22
  -7.640 -0.8066E-20 -0.2528E-21
  -7.620 -0.2191E-19 -0.6910E-21
  -7.600 -0.5887E-19 -0.1868E-20
  -7.580 -0.1564E-18 -0.4997E-20
  -7.560 -0.4112E-18 -0.1322E-19
  -7.540 -0.1069E-17 -0.3460E-19
  -7.520 -0.2748E-17 -0.8956E-19
  -7.500 -0.6988E-17 -0.2293E-18
  -7.480 -0.1758E-16 -0.5808E-18
  -7.460 -0.4372E-16 -0.1455E-17
  -7.440 -0.1075E-15 -0.3606E-17
  -7.420 -0.2617E-15 -0.8840E-17
  -7.400 -0.6297E-15 -0.2143E-16
  -7.380 -0.1499E-14 -0.5141E-16
  -7.360 -0.3527E-14 -0.1220E-15
  -7.340 -0.8211E-14 -0.2862E-15
  -7.320 -0.1890E-13 -0.6642E-15
  -7.300 -0.4304E-13 -0.1525E-14
  -7.280 -0.9691E-13 -0.3463E-14
  -7.260 -0.2158E-12 -0.7779E-14
  -7.240 -0.4752E-12 -0.1728E-13
  -7.220 -0.1035E-11 -0.3798E-13
  -7.200 -0.2229E-11 -0.8256E-13
  -7.180 -0.4747E-11 -0.1775E-12
  -7.160 -0.9999E-11 -0.3775E-12
  -7.140 -0.2083E-10 -0.7940E-12
  -7.120 -0.4290E-10 -0.1652E-11
  -7.100 -0.8737E-10 -0.3399E-11
  -7.080 -0.1760E-09 -0.6919E-11
  -7.060 -0.3505E-09 -0.1393E-10
  -7.040 -0.6902E-09 -0.2773E-10
  -7.020 -0.1344E-08 -0.5461E-10
  -7.000 -0.2588E-08 -0.1064E-09
  -6.980 -0.4927E-08 -0.2049E-09
  -6.960 -0.9276E-08 -0.3904E-09
  -6.940 -0.1726E-07 -0.7357E-09
  -6.920 -0.3177E-07 -0.1371E-08
  -6.900 -0.5781E-07 -0.2527E-08
  -6.880 -0.1040E-06 -0.4607E-08
  -6.860 -0.1850E-06 -0.8306E-08
  -6.840 -0.3252E-06 -0.1481E-07
  -6.820 -0.5652E-06 -0.2612E-07
  -6.800 -0.9713E-06 -0.4554E-07
  -6.780 -0.1650E-05 -0.7853E-07
  -6.760 -0.2770E-05 -0.1339E-06
  -6.740 -0.4597E-05 -0.2259E-06
  -6.720 -0.7540E-05 -0.3767E-06
  -6.700 -0.1222E-04 -0.6212E-06
  -6.680 -0.1959E-04 -0.1013E-05
  -6.660 -0.3101E-04 -0.1633E-05
  -6.640 -0.4853E-04 -0.2604E-05
  -6.620 -0.7503E-04 -0.4104E-05
  -6.600 -0.1146E-03 -0.6397E-05
  -6.580 -0.1730E-03 -0.9856E-05
  -6.560 -0.2579E-03 -0.1501E-04
  -6.540 -0.3798E-03 -0.2261E-04
  -6.520 -0.5524E-03 -0.3366E-04
  -6.500 -0.7934E-03 -0.4953E-04
  -6.480 -0.1125E-02 -0.7203E-04
  -6.460 -0.1575E-02 -0.1035E-03
  -6.440 -0.2177E-02 -0.1471E-03
  -6.420 -0.2968E-02 -0.2064E-03
  -6.400 -0.3993E-02 -0.2863E-03
  -6.380 -0.5298E-02 -0.3922E-03
  -6.360 -0.6929E-02 -0.5308E-03
  -6.340 -0.8932E-02 -0.7095E-03
  -6.320 -0.1134E-01 -0.9363E-03
  -6.300 -0.1418E-01 -0.1220E-02
  -6.280 -0.1743E-01 -0.1568E-02
  -6.260 -0.2106E-01 -0.1990E-02
  -6.240 -0.2498E-01 -0.2489E-02
  -6.220 -0.2903E-01 -0.3070E-02
  -6.200 -0.3299E-01 -0.3730E-02
  -6.180 -0.3657E-01 -0.4461E-02
  -6.160 -0.3936E-01 -0.5248E-02
  -6.140 -0.4087E-01 -0.6066E-02
  -6.120 -0.4054E-01 -0.6876E-02
  -6.100 -0.3770E-01 -0.7630E-02
  -6.080 -0.3165E-01 -0.8263E-02
  -6.060 -0.2165E-01 -0.8696E-02
  -6.040 -0.6959E-02 -0.8835E-02
  -6.020  0.1308E-01 -0.8574E-02
  -6.000  0.3905E-01 -0.7793E-02
  -5.980  0.7135E-01 -0.6366E-02
  -5.960  0.1102E+00 -0.4162E-02
  -5.940  0.1555E+00 -0.1052E-02
  -5.920  0.2070E+00  0.3088E-02
  -5.900  0.2640E+00  0.8368E-02
  -5.880  0.3256E+00  0.1488E-01
  -5.860  0.3905E+00  0.2269E-01
  -5.840  0.4573E+00  0.3183E-01
  -5.820  0.5243E+00  0.4232E-01
  -5.800  0.5899E+00  0.5412E-01
  -5.780  0.6521E+00  0.6716E-01
  -5.760  0.7094E+00  0.8135E-01
  -5.740  0.7601E+00  0.9655E-01
  -5.720  0.8031E+00  0.1126E+00
  -5.700  0.8373E+00  0.1294E+00
  -5.680  0.8621E+00  0.1466E+00
  -5.660  0.8773E+00  0.1641E+00
  -5.640  0.8830E+00  0.1818E+00
  -5.620  0.8796E+00  0.1994E+00
  -5.600  0.8681E+00  0.2168E+00
  -5.580  0.8494E+00  0.2338E+00
  -5.560  0.8247E+00  0.2502E+00
  -5.540  0.7955E+00  0.2662E+00
  -5.520  0.7629E+00  0.2814E+00
  -5.500  0.7284E+00  0.2960E+00
  -5.480  0.6931E+00  0.3098E+00
  -5.460  0.6580E+00  0.3230E+00
  -5.440  0.6241E+00  0.3355E+00
  -5.420  0.5920E+00  0.3473E+00
  -5.400  0.5623E+00  0.3586E+00
  -5.380  0.5351E+00  0.3693E+00
  -5.360  0.5107E+00  0.3795E+00
  -5.340  0.4890E+00  0.3893E+00
  -5.320  0.4700E+00  0.3987E+00
  -5.300  0.4535E+00  0.4077E+00
  -5.280  0.4391E+00  0.4165E+00
  -5.260  0.4267E+00  0.4251E+00
  -5.240  0.4160E+00  0.4334E+00
  -5.220  0.4068E+00  0.4415E+00
  -5.200  0.3986E+00  0.4495E+00
  -5.180  0.3915E+00  0.4573E+00
  -5.160  0.3851E+00  0.4650E+00
  -5.140  0.3792E+00  0.4726E+00
  -5.120  0.3739E+00  0.4801E+00
  -5.100  0.3689E+00  0.4875E+00
  -5.080  0.3643E+00  0.4947E+00
  -5.060  0.3598E+00  0.5019E+00
  -5.040  0.3556E+00  0.5090E+00
  -5.020  0.3515E+00  0.5161E+00
  -5.000  0.3475E+00  0.5230E+00
  -4.980  0.3437E+00  0.5299E+00
  -4.960  0.3400E+00  0.5367E+00
  -4.940  0.3364E+00  0.5434E+00
  -4.920  0.3329E+00  0.5501E+00
  -4.900  0.3295E+00  0.5567E+00
  -4.880  0.3263E+00  0.5632E+00
  -4.860  0.3231E+00  0.5697E+00
  -4.840  0.3200E+00  0.5761E+00
  -4.820  0.3171E+00  0.5824E+00
  -4.800  0.3142E+00  0.5887E+00
  -4.780  0.3114E+00  0.5949E+00
  -4.760  0.3087E+00  0.6011E+00
  -4.740  0.3061E+00  0.6072E+00
  -4.720  0.3035E+00  0.6133E+00
  -4.700  0.3011E+00  0.6193E+00
  -4.680  0.2987E+00  0.6253E+00
  -4.660  0.2964E+00  0.6312E+00
  -4.640  0.2942E+00  0.6371E+00
  -4.620  0.2921E+00  0.6429E+00
  -4.600  0.2900E+00  0.6487E+00
  -4.580  0.2880E+00  0.6545E+00
  -4.560  0.2861E+00  0.6602E+00
  -4.540  0.2842E+00  0.6659E+00
  -4.520  0.2824E+00  0.6715E+00
  -4.500  0.2806E+00  0.6772E+00
  -4.480  0.2789E+00  0.6827E+00
  -4.460  0.2773E+00  0.6883E+00
  -4.440  0.2757E+00  0.6938E+00
  -4.420  0.2742E+00  0.6993E+00
  -4.400  0.2727E+00  0.7047E+00
  -4.380  0.2713E+00  0.7102E+00
  -4.360  0.2699E+00  0.7156E+00
  -4.340  0.2686E+00  0.7209E+00
  -4.320  0.2673E+00  0.7263E+00
  -4.300  0.2661E+00  0.7316E+00
  -4.280  0.2649E+00  0.7369E+00
  -4.260  0.2638E+00  0.7422E+00
  -4.240  0.2627E+00  0.7474E+00
  -4.220  0.2617E+00  0.7527E+00
  -4.200  0.2607E+00  0.7579E+00
  -4.180  0.2597E+00  0.7631E+00
  -4.160  0.2588E+00  0.7682E+00
  -4.140  0.2579E+00  0.7734E+00
  -4.120  0.2571E+00  0.7785E+00
  -4.100  0.2564E+00  0.7837E+00
  -4.080  0.2556E+00  0.7888E+00
  -4.060  0.2550E+00  0.7939E+00
  -4.040  0.2544E+00  0.7990E+00
  -4.020  0.2538E+00  0.8040E+00
  -4.000  0.2534E+00  0.8091E+00
  -3.980  0.2531E+00  0.8142E+00
  -3.960  0.2530E+00  0.8192E+00
  -3.940  0.2530E+00  0.8243E+00
  -3.920  0.2532E+00  0.8294E+00
  -3.900  0.2538E+00  0.8344E+00
  -3.880  0.2546E+00  0.8395E+00
  -3.860  0.2558E+00  0.8446E+00
  -3.840  0.2575E+00  0.8498E+00
  -3.820  0.2596E+00  0.8550E+00
  -3.800  0.2623E+00  0.8602E+00
  -3.780  0.2655E+00  0.8655E+00
  -3.760  0.2692E+00  0.8709E+00
  -3.740  0.2735E+00  0.8764E+00
  -3.720  0.2783E+00  0.8820E+00
  -3.700  0.2834E+00  0.8876E+00
  -3.680  0.2888E+00  0.8934E+00
  -3.660  0.2943E+00  0.8993E+00
  -3.640  0.2996E+00  0.9053E+00
  -3.620  0.3047E+00  0.9114E+00
  -3.600  0.3091E+00  0.9176E+00
  -3.580  0.3127E+00  0.9238E+00
  -3.560  0.3152E+00  0.9301E+00
  -3.540  0.3163E+00  0.9364E+00
  -3.520  0.3159E+00  0.9428E+00
  -3.500  0.3138E+00  0.9490E+00
  -3.480  0.3098E+00  0.9552E+00
  -3.460  0.3041E+00  0.9613E+00
  -3.440  0.2965E+00  0.9672E+00
  -3.420  0.2873E+00  0.9730E+00
  -3.400  0.2765E+00  0.9785E+00
  -3.380  0.2646E+00  0.9838E+00
  -3.360  0.2517E+00  0.9888E+00
  -3.340  0.2383E+00  0.9936E+00
  -3.320  0.2246E+00  0.9981E+00
  -3.300  0.2110E+00  0.1002E+01
  -3.280  0.1978E+00  0.1006E+01
  -3.260  0.1853E+00  0.1010E+01
  -3.240  0.1738E+00  0.1013E+01
  -3.220  0.1634E+00  0.1017E+01
  -3.200  0.1542E+00  0.1020E+01
  -3.180  0.1464E+00  0.1023E+01
  -3.160  0.1398E+00  0.1026E+01
  -3.140  0.1346E+00  0.1028E+01
  -3.120  0.1305E+00  0.1031E+01
  -3.100  0.1275E+00  0.1033E+01
  -3.080  0.1255E+00  0.1036E+01
  -3.060  0.1242E+00  0.1038E+01
  -3.040  0.1236E+00  0.1041E+01
  -3.020  0.1235E+00  0.1043E+01
  -3.000  0.1238E+00  0.1046E+01
  -2.980  0.1243E+00  0.1048E+01
  -2.960  0.1250E+00  0.1051E+01
  -2.940  0.1258E+00  0.1053E+01
  -2.920  0.1266E+00  0.1056E+01
  -2.900  0.1274E+00  0.1058E+01
  -2.880  0.1282E+00  0.1061E+01
  -2.860  0.1288E+00  0.1064E+01
  -2.840  0.1294E+00  0.1066E+01
  -2.820  0.1299E+00  0.1069E+01
  -2.800  0.1303E+00  0.1071E+01
  -2.780  0.1306E+00  0.1074E+01
  -2.760  0.1308E+00  0.1077E+01
  -2.740  0.1308E+00  0.1079E+01
  -2.720  0.1308E+00  0.1082E+01
  -2.700  0.1306E+00  0.1084E+01
  -2.680  0.1302E+00  0.1087E+01
  -2.660  0.1296E+00  0.1090E+01
  -2.640  0.1288E+00  0.1092E+01
  -2.620  0.1278E+00  0.1095E+01
  -2.600  0.1265E+00  0.1097E+01
  -2.580  0.1248E+00  0.1100E+01
  -2.560  0.1229E+00  0.1102E+01
  -2.540  0.1207E+00  0.1105E+01
  -2.520  0.1182E+00  0.1107E+01
  -2.500  0.1156E+00  0.1109E+01
  -2.480  0.1129E+00  0.1112E+01
  -2.460  0.1105E+00  0.1114E+01
  -2.440  0.1085E+00  0.1116E+01
  -2.420  0.1073E+00  0.1118E+01
  -2.400  0.1072E+00  0.1120E+01
  -2.380  0.1089E+00  0.1122E+01
  -2.360  0.1126E+00  0.1125E+01
  -2.340  0.1190E+00  0.1127E+01
  -2.320  0.1287E+00  0.1130E+01
  -2.300  0.1420E+00  0.1132E+01
  -2.280  0.1594E+00  0.1136E+01
  -2.260  0.1811E+00  0.1139E+01
  -2.240  0.2074E+00  0.1143E+01
  -2.220  0.2381E+00  0.1148E+01
  -2.200  0.2729E+00  0.1154E+01
  -2.180  0.3114E+00  0.1160E+01
  -2.160  0.3528E+00  0.1167E+01
  -2.140  0.3961E+00  0.1175E+01
  -2.120  0.4403E+00  0.1184E+01
  -2.100  0.4843E+00  0.1193E+01
  -2.080  0.5269E+00  0.1204E+01
  -2.060  0.5671E+00  0.1215E+01
  -2.040  0.6042E+00  0.1227E+01
  -2.020  0.6377E+00  0.1240E+01
  -2.000  0.6677E+00  0.1253E+01
  -1.980  0.6946E+00  0.1267E+01
  -1.960  0.7194E+00  0.1282E+01
  -1.940  0.7437E+00  0.1297E+01
  -1.920  0.7695E+00  0.1312E+01
  -1.900  0.7993E+00  0.1328E+01
  -1.880  0.8356E+00  0.1345E+01
  -1.860  0.8812E+00  0.1362E+01
  -1.840  0.9386E+00  0.1381E+01
  -1.820  0.1010E+01  0.1401E+01
  -1.800  0.1097E+01  0.1423E+01
  -1.780  0.1200E+01  0.1447E+01
  -1.760  0.1319E+01  0.1474E+01
  -1.740  0.1453E+01  0.1503E+01
  -1.720  0.1599E+01  0.1535E+01
  -1.700  0.1755E+01  0.1570E+01
  -1.680  0.1914E+01  0.1608E+01
  -1.660  0.2073E+01  0.1649E+01
  -1.640  0.2225E+01  0.1694E+01
  -1.620  0.2366E+01  0.1741E+01
  -1.600  0.2488E+01  0.1791E+01
  -1.580  0.2587E+01  0.1843E+01
  -1.560  0.2658E+01  0.1896E+01
  -1.540  0.2698E+01  0.1950E+01
  -1.520  0.2706E+01  0.2004E+01
  -1.500  0.2681E+01  0.2058E+01
  -1.480  0.2624E+01  0.2110E+01
  -1.460  0.2538E+01  0.2161E+01
  -1.440  0.2426E+01  0.2209E+01
  -1.420  0.2293E+01  0.2255E+01
  -1.400  0.2146E+01  0.2298E+01
  -1.380  0.1990E+01  0.2338E+01
  -1.360  0.1831E+01  0.2375E+01
  -1.340  0.1676E+01  0.2408E+01
  -1.320  0.1529E+01  0.2439E+01
  -1.300  0.1395E+01  0.2467E+01
  -1.280  0.1277E+01  0.2492E+01
  -1.260  0.1177E+01  0.2516E+01
  -1.240  0.1095E+01  0.2538E+01
  -1.220  0.1032E+01  0.2558E+01
  -1.200  0.9860E+00  0.2578E+01
  -1.180  0.9546E+00  0.2597E+01
  -1.160  0.9350E+00  0.2616E+01
  -1.140  0.9238E+00  0.2634E+01
  -1.120  0.9177E+00  0.2653E+01
  -1.100  0.9134E+00  0.2671E+01
  -1.080  0.9079E+00  0.2689E+01
  -1.060  0.8987E+00  0.2707E+01
  -1.040  0.8841E+00  0.2725E+01
  -1.020  0.8628E+00  0.2742E+01
  -1.000  0.8344E+00  0.2759E+01
  -0.980  0.7992E+00  0.2775E+01
  -0.960  0.7578E+00  0.2790E+01
  -0.940  0.7115E+00  0.2804E+01
  -0.920  0.6617E+00  0.2817E+01
  -0.900  0.6103E+00  0.2829E+01
  -0.880  0.5587E+00  0.2841E+01
  -0.860  0.5087E+00  0.2851E+01
  -0.840  0.4616E+00  0.2860E+01
  -0.820  0.4184E+00  0.2868E+01
  -0.800  0.3800E+00  0.2876E+01
  -0.780  0.3468E+00  0.2883E+01
  -0.760  0.3188E+00  0.2889E+01
  -0.740  0.2960E+00  0.2895E+01
  -0.720  0.2779E+00  0.2901E+01
  -0.700  0.2640E+00  0.2906E+01
  -0.680  0.2536E+00  0.2911E+01
  -0.660  0.2460E+00  0.2916E+01
  -0.640  0.2406E+00  0.2921E+01
  -0.620  0.2368E+00  0.2926E+01
  -0.600  0.2339E+00  0.2930E+01
  -0.580  0.2316E+00  0.2935E+01
  -0.560  0.2296E+00  0.2939E+01
  -0.540  0.2276E+00  0.2944E+01
  -0.520  0.2254E+00  0.2948E+01
  -0.500  0.2231E+00  0.2953E+01
  -0.480  0.2206E+00  0.2957E+01
  -0.460  0.2179E+00  0.2962E+01
  -0.440  0.2151E+00  0.2966E+01
  -0.420  0.2123E+00  0.2970E+01
  -0.400  0.2095E+00  0.2974E+01
  -0.380  0.2068E+00  0.2979E+01
  -0.360  0.2042E+00  0.2983E+01
  -0.340  0.2018E+00  0.2987E+01
  -0.320  0.1996E+00  0.2991E+01
  -0.300  0.1975E+00  0.2995E+01
  -0.280  0.1956E+00  0.2999E+01
  -0.260  0.1938E+00  0.3002E+01
  -0.240  0.1923E+00  0.3006E+01
  -0.220  0.1908E+00  0.3010E+01
  -0.200  0.1894E+00  0.3014E+01
  -0.180  0.1881E+00  0.3018E+01
  -0.160  0.1869E+00  0.3021E+01
  -0.140  0.1858E+00  0.3025E+01
  -0.120  0.1847E+00  0.3029E+01
  -0.100  0.1836E+00  0.3032E+01
  -0.080  0.1826E+00  0.3036E+01
  -0.060  0.1816E+00  0.3040E+01
  -0.040  0.1806E+00  0.3043E+01
  -0.020  0.1796E+00  0.3047E+01
   0.000  0.1787E+00  0.3051E+01
   0.020  0.1778E+00  0.3054E+01
   0.040  0.1769E+00  0.3058E+01
   0.060  0.1760E+00  0.3061E+01
   0.080  0.1751E+00  0.3065E+01
   0.100  0.1743E+00  0.3068E+01
   0.120  0.1735E+00  0.3072E+01
   0.140  0.1726E+00  0.3075E+01
   0.160  0.1719E+00  0.3078E+01
   0.180  0.1711E+00  0.3082E+01
   0.200  0.1703E+00  0.3085E+01
   0.220  0.1696E+00  0.3089E+01
   0.240  0.1689E+00  0.3092E+01
   0.260  0.1682E+00  0.3095E+01
   0.280  0.1675E+00  0.3099E+01
   0.300  0.1668E+00  0.3102E+01
   0.320  0.1662E+00  0.3105E+01
   0.340  0.1655E+00  0.3109E+01
   0.360  0.1649E+00  0.3112E+01
   0.380  0.1643E+00  0.3115E+01
   0.400  0.1637E+00  0.3119E+01
   0.420  0.1631E+00  0.3122E+01
   0.440  0.1625E+00  0.3125E+01
   0.460  0.1619E+00  0.3128E+01
   0.480  0.1614E+00  0.3132E+01
   0.500  0.1608E+00  0.3135E+01
   0.520  0.1603E+00  0.3138E+01
   0.540  0.1597E+00  0.3141E+01
   0.560  0.1592E+00  0.3144E+01
   0.580  0.1587E+00  0.3148E+01
   0.600  0.1582E+00  0.3151E+01
   0.620  0.1577E+00  0.3154E+01
   0.640  0.1572E+00  0.3157E+01
   0.660  0.1568E+00  0.3160E+01
   0.680  0.1563E+00  0.3163E+01
   0.700  0.1558E+00  0.3166E+01
   0.720  0.1554E+00  0.3170E+01
   0.740  0.1550E+00  0.3173E+01
   0.760  0.1545E+00  0.3176E+01
   0.780  0.1541E+00  0.3179E+01
   0.800  0.1537E+00  0.3182E+01
   0.820  0.1533E+00  0.3185E+01
   0.840  0.1528E+00  0.3188E+01
   0.860  0.1524E+00  0.3191E+01
   0.880  0.1520E+00  0.3194E+01
   0.900  0.1516E+00  0.3197E+01
   0.920  0.1513E+00  0.3200E+01
   0.940  0.1509E+00  0.3203E+01
   0.960  0.1505E+00  0.3206E+01
   0.980  0.1501E+00  0.3209E+01
   1.000  0.1496E+00  0.3212E+01
   1.020  0.1492E+00  0.3215E+01
   1.040  0.1488E+00  0.3218E+01
   1.060  0.1483E+00  0.3221E+01
   1.080  0.1477E+00  0.3224E+01
   1.100  0.1471E+00  0.3227E+01
   1.120  0.1464E+00  0.3230E+01
   1.140  0.1456E+00  0.3233E+01
   1.160  0.1446E+00  0.3236E+01
   1.180  0.1434E+00  0.3239E+01
   1.200  0.1420E+00  0.3241E+01
   1.220  0.1403E+00  0.3244E+01
   1.240  0.1383E+00  0.3247E+01
   1.260  0.1360E+00  0.3250E+01
   1.280  0.1332E+00  0.3252E+01
   1.300  0.1301E+00  0.3255E+01
   1.320  0.1266E+00  0.3258E+01
   1.340  0.1227E+00  0.3260E+01
   1.360  0.1185E+00  0.3262E+01
   1.380  0.1142E+00  0.3265E+01
   1.400  0.1100E+00  0.3267E+01
   1.420  0.1061E+00  0.3269E+01
   1.440  0.1030E+00  0.3271E+01
   1.460  0.1010E+00  0.3273E+01
   1.480  0.1007E+00  0.3275E+01
   1.500  0.1028E+00  0.3277E+01
   1.520  0.1078E+00  0.3279E+01
   1.540  0.1166E+00  0.3282E+01
   1.560  0.1298E+00  0.3284E+01
   1.580  0.1483E+00  0.3287E+01
   1.600  0.1726E+00  0.3291E+01
   1.620  0.2033E+00  0.3295E+01
   1.640  0.2408E+00  0.3299E+01
   1.660  0.2852E+00  0.3305E+01
   1.680  0.3366E+00  0.3312E+01
   1.700  0.3944E+00  0.3320E+01
   1.720  0.4581E+00  0.3329E+01
   1.740  0.5267E+00  0.3340E+01
   1.760  0.5990E+00  0.3351E+01
   1.780  0.6733E+00  0.3365E+01
   1.800  0.7481E+00  0.3380E+01
   1.820  0.8214E+00  0.3396E+01
   1.840  0.8915E+00  0.3414E+01
   1.860  0.9565E+00  0.3433E+01
   1.880  0.1015E+01  0.3454E+01
   1.900  0.1065E+01  0.3475E+01
   1.920  0.1107E+01  0.3497E+01
   1.940  0.1138E+01  0.3520E+01
   1.960  0.1160E+01  0.3543E+01
   1.980  0.1173E+01  0.3566E+01
   2.000  0.1177E+01  0.3590E+01
   2.020  0.1174E+01  0.3614E+01
   2.040  0.1166E+01  0.3637E+01
   2.060  0.1153E+01  0.3660E+01
   2.080  0.1139E+01  0.3683E+01
   2.100  0.1125E+01  0.3705E+01
   2.120  0.1114E+01  0.3727E+01
   2.140  0.1106E+01  0.3750E+01
   2.160  0.1103E+01  0.3772E+01
   2.180  0.1107E+01  0.3794E+01
   2.200  0.1117E+01  0.3816E+01
   2.220  0.1134E+01  0.3839E+01
   2.240  0.1157E+01  0.3862E+01
   2.260  0.1186E+01  0.3886E+01
   2.280  0.1218E+01  0.3910E+01
   2.300  0.1253E+01  0.3935E+01
   2.320  0.1289E+01  0.3961E+01
   2.340  0.1323E+01  0.3987E+01
   2.360  0.1355E+01  0.4014E+01
   2.380  0.1382E+01  0.4042E+01
   2.400  0.1403E+01  0.4070E+01
   2.420  0.1418E+01  0.4098E+01
   2.440  0.1424E+01  0.4127E+01
   2.460  0.1424E+01  0.4155E+01
   2.480  0.1415E+01  0.4184E+01
   2.500  0.1399E+01  0.4212E+01
   2.520  0.1377E+01  0.4239E+01
   2.540  0.1349E+01  0.4266E+01
   2.560  0.1317E+01  0.4293E+01
   2.580  0.1282E+01  0.4318E+01
   2.600  0.1245E+01  0.4343E+01
   2.620  0.1207E+01  0.4367E+01
   2.640  0.1170E+01  0.4391E+01
   2.660  0.1133E+01  0.4413E+01
   2.680  0.1099E+01  0.4435E+01
   2.700  0.1066E+01  0.4457E+01
   2.720  0.1037E+01  0.4477E+01
   2.740  0.1010E+01  0.4498E+01
   2.760  0.9866E+00  0.4517E+01
   2.780  0.9659E+00  0.4537E+01
   2.800  0.9481E+00  0.4556E+01
   2.820  0.9330E+00  0.4574E+01
   2.840  0.9206E+00  0.4593E+01
   2.860  0.9108E+00  0.4611E+01
   2.880  0.9035E+00  0.4629E+01
   2.900  0.8988E+00  0.4647E+01
   2.920  0.8967E+00  0.4665E+01
   2.940  0.8976E+00  0.4683E+01
   2.960  0.9016E+00  0.4701E+01
   2.980  0.9090E+00  0.4719E+01
   3.000  0.9201E+00  0.4737E+01
   3.020  0.9353E+00  0.4756E+01
   3.040  0.9547E+00  0.4775E+01
   3.060  0.9786E+00  0.4795E+01
   3.080  0.1007E+01  0.4815E+01
   3.100  0.1040E+01  0.4836E+01
   3.120  0.1076E+01  0.4857E+01
   3.140  0.1116E+01  0.4880E+01
   3.160  0.1159E+01  0.4903E+01
   3.180  0.1203E+01  0.4927E+01
   3.200  0.1247E+01  0.4952E+01
   3.220  0.1290E+01  0.4978E+01
   3.240  0.1332E+01  0.5004E+01
   3.260  0.1369E+01  0.5032E+01
   3.280  0.1401E+01  0.5060E+01
   3.300  0.1426E+01  0.5088E+01
   3.320  0.1444E+01  0.5117E+01
   3.340  0.1454E+01  0.5146E+01
   3.360  0.1455E+01  0.5175E+01
   3.380  0.1448E+01  0.5204E+01
   3.400  0.1432E+01  0.5233E+01
   3.420  0.1409E+01  0.5261E+01
   3.440  0.1379E+01  0.5288E+01
   3.460  0.1343E+01  0.5315E+01
   3.480  0.1304E+01  0.5341E+01
   3.500  0.1262E+01  0.5367E+01
   3.520  0.1219E+01  0.5391E+01
   3.540  0.1176E+01  0.5415E+01
   3.560  0.1134E+01  0.5437E+01
   3.580  0.1093E+01  0.5459E+01
   3.600  0.1056E+01  0.5480E+01
   3.620  0.1021E+01  0.5501E+01
   3.640  0.9899E+00  0.5520E+01
   3.660  0.9613E+00  0.5540E+01
   3.680  0.9352E+00  0.5558E+01
   3.700  0.9112E+00  0.5577E+01
   3.720  0.8889E+00  0.5594E+01
   3.740  0.8675E+00  0.5612E+01
   3.760  0.8468E+00  0.5629E+01
   3.780  0.8263E+00  0.5645E+01
   3.800  0.8056E+00  0.5661E+01
   3.820  0.7847E+00  0.5677E+01
   3.840  0.7634E+00  0.5692E+01
   3.860  0.7420E+00  0.5707E+01
   3.880  0.7204E+00  0.5722E+01
   3.900  0.6990E+00  0.5735E+01
   3.920  0.6781E+00  0.5749E+01
   3.940  0.6579E+00  0.5762E+01
   3.960  0.6387E+00  0.5775E+01
   3.980  0.6209E+00  0.5787E+01
   4.000  0.6045E+00  0.5799E+01
   4.020  0.5897E+00  0.5811E+01
   4.040  0.5766E+00  0.5823E+01
   4.060  0.5651E+00  0.5834E+01
   4.080  0.5553E+00  0.5845E+01
   4.100  0.5469E+00  0.5856E+01
   4.120  0.5399E+00  0.5867E+01
   4.140  0.5341E+00  0.5878E+01
   4.160  0.5293E+00  0.5888E+01
   4.180  0.5253E+00  0.5899E+01
   4.200  0.5220E+00  0.5909E+01
   4.220  0.5191E+00  0.5920E+01
   4.240  0.5166E+00  0.5930E+01
   4.260  0.5142E+00  0.5940E+01
   4.280  0.5120E+00  0.5950E+01
   4.300  0.5098E+00  0.5961E+01
   4.320  0.5075E+00  0.5971E+01
   4.340  0.5050E+00  0.5981E+01
   4.360  0.5023E+00  0.5991E+01
   4.380  0.4994E+00  0.6001E+01
   4.400  0.4961E+00  0.6011E+01
   4.420  0.4924E+00  0.6021E+01
   4.440  0.4884E+00  0.6030E+01
   4.460  0.4839E+00  0.6040E+01
   4.480  0.4791E+00  0.6050E+01
   4.500  0.4738E+00  0.6059E+01
   4.520  0.4683E+00  0.6069E+01
   4.540  0.4626E+00  0.6078E+01
   4.560  0.4570E+00  0.6087E+01
   4.580  0.4518E+00  0.6096E+01
   4.600  0.4473E+00  0.6105E+01
   4.620  0.4440E+00  0.6114E+01
   4.640  0.4425E+00  0.6123E+01
   4.660  0.4434E+00  0.6131E+01
   4.680  0.4475E+00  0.6140E+01
   4.700  0.4554E+00  0.6150E+01
   4.720  0.4680E+00  0.6159E+01
   4.740  0.4860E+00  0.6169E+01
   4.760  0.5100E+00  0.6179E+01
   4.780  0.5404E+00  0.6190E+01
   4.800  0.5776E+00  0.6201E+01
   4.820  0.6216E+00  0.6214E+01
   4.840  0.6720E+00  0.6227E+01
   4.860  0.7284E+00  0.6242E+01
   4.880  0.7899E+00  0.6257E+01
   4.900  0.8552E+00  0.6275E+01
   4.920  0.9230E+00  0.6293E+01
   4.940  0.9916E+00  0.6313E+01
   4.960  0.1059E+01  0.6334E+01
   4.980  0.1124E+01  0.6356E+01
   5.000  0.1184E+01  0.6380E+01
   5.020  0.1239E+01  0.6405E+01
   5.040  0.1285E+01  0.6431E+01
   5.060  0.1323E+01  0.6457E+01
   5.080  0.1351E+01  0.6484E+01
   5.100  0.1370E+01  0.6512E+01
   5.120  0.1379E+01  0.6539E+01
   5.140  0.1379E+01  0.6567E+01
   5.160  0.1370E+01  0.6594E+01
   5.180  0.1353E+01  0.6621E+01
   5.200  0.1331E+01  0.6648E+01
   5.220  0.1303E+01  0.6674E+01
   5.240  0.1272E+01  0.6699E+01
   5.260  0.1238E+01  0.6724E+01
   5.280  0.1204E+01  0.6748E+01
   5.300  0.1170E+01  0.6772E+01
   5.320  0.1137E+01  0.6794E+01
   5.340  0.1106E+01  0.6816E+01
   5.360  0.1077E+01  0.6838E+01
   5.380  0.1051E+01  0.6859E+01
   5.400  0.1029E+01  0.6880E+01
   5.420  0.1009E+01  0.6900E+01
   5.440  0.9919E+00  0.6920E+01
   5.460  0.9779E+00  0.6939E+01
   5.480  0.9664E+00  0.6958E+01
   5.500  0.9572E+00  0.6978E+01
   5.520  0.9500E+00  0.6997E+01
   5.540  0.9446E+00  0.7015E+01
   5.560  0.9408E+00  0.7034E+01
   5.580  0.9384E+00  0.7053E+01
   5.600  0.9374E+00  0.7072E+01
   5.620  0.9377E+00  0.7091E+01
   5.640  0.9393E+00  0.7109E+01
   5.660  0.9425E+00  0.7128E+01
   5.680  0.9474E+00  0.7147E+01
   5.700  0.9544E+00  0.7166E+01
   5.720  0.9637E+00  0.7185E+01
   5.740  0.9759E+00  0.7205E+01
   5.760  0.9914E+00  0.7225E+01
   5.780  0.1011E+01  0.7245E+01
   5.800  0.1034E+01  0.7266E+01
   5.820  0.1062E+01  0.7287E+01
   5.840  0.1095E+01  0.7309E+01
   5.860  0.1133E+01  0.7332E+01
   5.880  0.1177E+01  0.7355E+01
   5.900  0.1224E+01  0.7380E+01
   5.920  0.1276E+01  0.7405E+01
   5.940  0.1330E+01  0.7432E+01
   5.960  0.1386E+01  0.7459E+01
   5.980  0.1442E+01  0.7488E+01
   6.000  0.1496E+01  0.7518E+01
   6.020  0.1545E+01  0.7549E+01
   6.040  0.1588E+01  0.7581E+01
   6.060  0.1621E+01  0.7613E+01
   6.080  0.1643E+01  0.7646E+01
   6.100  0.1651E+01  0.7679E+01
   6.120  0.1644E+01  0.7712E+01
   6.140  0.1620E+01  0.7744E+01
   6.160  0.1578E+01  0.7776E+01
   6.180  0.1520E+01  0.7806E+01
   6.200  0.1445E+01  0.7835E+01
   6.220  0.1355E+01  0.7862E+01
   6.240  0.1252E+01  0.7887E+01
   6.260  0.1138E+01  0.7910E+01
   6.280  0.1016E+01  0.7930E+01
   6.300  0.8903E+00  0.7948E+01
   6.320  0.7629E+00  0.7964E+01
   6.340  0.6375E+00  0.7976E+01
   6.360  0.5170E+00  0.7987E+01
   6.380  0.4040E+00  0.7995E+01
   6.400  0.3010E+00  0.8001E+01
   6.420  0.2097E+00  0.8005E+01
   6.440  0.1313E+00  0.8008E+01
   6.460  0.6681E-01  0.8009E+01
   6.480  0.1656E-01  0.8009E+01
   6.500 -0.1942E-01  0.8009E+01
   6.520 -0.4144E-01  0.8008E+01
   6.540 -0.5005E-01  0.8007E+01
   6.560 -0.4600E-01  0.8006E+01
   6.580 -0.3018E-01  0.8005E+01
   6.600 -0.3579E-02  0.8005E+01
   6.620  0.3275E-01  0.8006E+01
   6.640  0.7768E-01  0.8008E+01
   6.660  0.1301E+00  0.8010E+01
   6.680  0.1887E+00  0.8014E+01
   6.700  0.2522E+00  0.8019E+01
   6.720  0.3194E+00  0.8025E+01
   6.740  0.3888E+00  0.8033E+01
   6.760  0.4590E+00  0.8042E+01
   6.780  0.5285E+00  0.8053E+01
   6.800  0.5959E+00  0.8065E+01
   6.820  0.6598E+00  0.8078E+01
   6.840  0.7188E+00  0.8092E+01
   6.860  0.7718E+00  0.8108E+01
   6.880  0.8179E+00  0.8124E+01
   6.900  0.8561E+00  0.8141E+01
   6.920  0.8859E+00  0.8159E+01
   6.940  0.9072E+00  0.8177E+01
   6.960  0.9198E+00  0.8196E+01
   6.980  0.9242E+00  0.8214E+01
   7.000  0.9209E+00  0.8233E+01
   7.020  0.9107E+00  0.8251E+01
   7.040  0.8946E+00  0.8269E+01
   7.060  0.8738E+00  0.8286E+01
   7.080  0.8495E+00  0.8303E+01
   7.100  0.8230E+00  0.8320E+01
   7.120  0.7958E+00  0.8335E+01
   7.140  0.7689E+00  0.8351E+01
   7.160  0.7435E+00  0.8366E+01
   7.180  0.7206E+00  0.8380E+01
   7.200  0.7010E+00  0.8394E+01
   7.220  0.6852E+00  0.8408E+01
   7.240  0.6737E+00  0.8421E+01
   7.260  0.6667E+00  0.8435E+01
   7.280  0.6640E+00  0.8448E+01
   7.300  0.6655E+00  0.8461E+01
   7.320  0.6708E+00  0.8475E+01
   7.340  0.6795E+00  0.8488E+01
   7.360  0.6911E+00  0.8502E+01
   7.380  0.7049E+00  0.8516E+01
   7.400  0.7205E+00  0.8531E+01
   7.420  0.7374E+00  0.8545E+01
   7.440  0.7552E+00  0.8560E+01
   7.460  0.7735E+00  0.8576E+01
   7.480  0.7922E+00  0.8592E+01
   7.500  0.8112E+00  0.8608E+01
   7.520  0.8304E+00  0.8625E+01
   7.540  0.8498E+00  0.8642E+01
   7.560  0.8695E+00  0.8659E+01
   7.580  0.8895E+00  0.8677E+01
   7.600  0.9098E+00  0.8695E+01
   7.620  0.9304E+00  0.8714E+01
   7.640  0.9510E+00  0.8733E+01
   7.660  0.9715E+00  0.8752E+01
   7.680  0.9914E+00  0.8772E+01
   7.700  0.1010E+01  0.8792E+01
   7.720  0.1028E+01  0.8813E+01
   7.740  0.1043E+01  0.8833E+01
   7.760  0.1056E+01  0.8855E+01
   7.780  0.1066E+01  0.8876E+01
   7.800  0.1073E+01  0.8897E+01
   7.820  0.1076E+01  0.8919E+01
   7.840  0.1075E+01  0.8940E+01
   7.860  0.1070E+01  0.8962E+01
   7.880  0.1062E+01  0.8983E+01
   7.900  0.1051E+01  0.9004E+01
   7.920  0.1036E+01  0.9025E+01
   7.940  0.1020E+01  0.9045E+01
   7.960  0.1001E+01  0.9065E+01
   7.980  0.9810E+00  0.9085E+01
   8.000  0.9603E+00  0.9104E+01
   8.020  0.9394E+00  0.9123E+01
   8.040  0.9187E+00  0.9141E+01
   8.060  0.8986E+00  0.9159E+01
   8.080  0.8793E+00  0.9177E+01
   8.100  0.8611E+00  0.9194E+01
   8.120  0.8439E+00  0.9211E+01
   8.140  0.8278E+00  0.9227E+01
   8.160  0.8128E+00  0.9244E+01
   8.180  0.7988E+00  0.9260E+01
   8.200  0.7855E+00  0.9275E+01
   8.220  0.7730E+00  0.9291E+01
   8.240  0.7611E+00  0.9306E+01
   8.260  0.7497E+00  0.9321E+01
   8.280  0.7390E+00  0.9336E+01
   8.300  0.7291E+00  0.9350E+01
   8.320  0.7203E+00  0.9365E+01
   8.340  0.7131E+00  0.9379E+01
   8.360  0.7080E+00  0.9393E+01
   8.380  0.7059E+00  0.9407E+01
   8.400  0.7077E+00  0.9421E+01
   8.420  0.7143E+00  0.9436E+01
   8.440  0.7271E+00  0.9450E+01
   8.460  0.7471E+00  0.9465E+01
   8.480  0.7755E+00  0.9481E+01
   8.500  0.8132E+00  0.9497E+01
   8.520  0.8611E+00  0.9514E+01
   8.540  0.9196E+00  0.9533E+01
   8.560  0.9889E+00  0.9552E+01
   8.580  0.1069E+01  0.9574E+01
   8.600  0.1158E+01  0.9597E+01
   8.620  0.1255E+01  0.9622E+01
   8.640  0.1359E+01  0.9649E+01
   8.660  0.1466E+01  0.9679E+01
   8.680  0.1575E+01  0.9710E+01
   8.700  0.1682E+01  0.9744E+01
   8.720  0.1785E+01  0.9779E+01
   8.740  0.1879E+01  0.9817E+01
   8.760  0.1963E+01  0.9856E+01
   8.780  0.2035E+01  0.9897E+01
   8.800  0.2091E+01  0.9939E+01
   8.820  0.2132E+01  0.9981E+01
   8.840  0.2157E+01  0.1002E+02
   8.860  0.2165E+01  0.1007E+02
   8.880  0.2158E+01  0.1011E+02
   8.900  0.2137E+01  0.1015E+02
   8.920  0.2104E+01  0.1020E+02
   8.940  0.2062E+01  0.1024E+02
   8.960  0.2012E+01  0.1028E+02
   8.980  0.1957E+01  0.1032E+02
   9.000  0.1900E+01  0.1035E+02
   9.020  0.1841E+01  0.1039E+02
   9.040  0.1783E+01  0.1043E+02
   9.060  0.1728E+01  0.1046E+02
   9.080  0.1675E+01  0.1049E+02
   9.100  0.1625E+01  0.1053E+02
   9.120  0.1579E+01  0.1056E+02
   9.140  0.1536E+01  0.1059E+02
   9.160  0.1497E+01  0.1062E+02
   9.180  0.1461E+01  0.1065E+02
   9.200  0.1430E+01  0.1068E+02
   9.220  0.1402E+01  0.1071E+02
   9.240  0.1379E+01  0.1073E+02
   9.260  0.1362E+01  0.1076E+02
   9.280  0.1352E+01  0.1079E+02
   9.300  0.1349E+01  0.1081E+02
   9.320  0.1356E+01  0.1084E+02
   9.340  0.1373E+01  0.1087E+02
   9.360  0.1402E+01  0.1090E+02
   9.380  0.1443E+01  0.1093E+02
   9.400  0.1496E+01  0.1096E+02
   9.420  0.1562E+01  0.1099E+02
   9.440  0.1638E+01  0.1102E+02
   9.460  0.1723E+01  0.1105E+02
   9.480  0.1815E+01  0.1109E+02
   9.500  0.1911E+01  0.1113E+02
   9.520  0.2006E+01  0.1117E+02
   9.540  0.2098E+01  0.1121E+02
   9.560  0.2183E+01  0.1125E+02
   9.580  0.2256E+01  0.1130E+02
   9.600  0.2314E+01  0.1135E+02
   9.620  0.2354E+01  0.1139E+02
   9.640  0.2374E+01  0.1144E+02
   9.660  0.2373E+01  0.1149E+02
   9.680  0.2348E+01  0.1153E+02
   9.700  0.2302E+01  0.1158E+02
   9.720  0.2236E+01  0.1163E+02
   9.740  0.2150E+01  0.1167E+02
   9.760  0.2048E+01  0.1171E+02
   9.780  0.1933E+01  0.1175E+02
   9.800  0.1809E+01  0.1178E+02
   9.820  0.1678E+01  0.1182E+02
   9.840  0.1546E+01  0.1185E+02
   9.860  0.1416E+01  0.1188E+02
   9.880  0.1290E+01  0.1190E+02
   9.900  0.1172E+01  0.1193E+02
   9.920  0.1064E+01  0.1195E+02
   9.940  0.9685E+00  0.1197E+02
   9.960  0.8860E+00  0.1198E+02
   9.980  0.8181E+00  0.1200E+02
  10.000  0.7652E+00  0.1202E+02
  10.020  0.7279E+00  0.1203E+02
  10.040  0.7062E+00  0.1205E+02
  10.060  0.7000E+00  0.1206E+02
  10.080  0.7090E+00  0.1207E+02
  10.100  0.7327E+00  0.1209E+02
  10.120  0.7707E+00  0.1210E+02
  10.140  0.8221E+00  0.1212E+02
  10.160  0.8859E+00  0.1214E+02
  10.180  0.9609E+00  0.1216E+02
  10.200  0.1046E+01  0.1218E+02
  10.220  0.1138E+01  0.1220E+02
  10.240  0.1236E+01  0.1223E+02
  10.260  0.1338E+01  0.1225E+02
  10.280  0.1439E+01  0.1228E+02
  10.300  0.1539E+01  0.1231E+02
  10.320  0.1632E+01  0.1234E+02
  10.340  0.1717E+01  0.1238E+02
  10.360  0.1790E+01  0.1241E+02
  10.380  0.1849E+01  0.1245E+02
  10.400  0.1891E+01  0.1249E+02
  10.420  0.1914E+01  0.1253E+02
  10.440  0.1918E+01  0.1257E+02
  10.460  0.1903E+01  0.1260E+02
  10.480  0.1867E+01  0.1264E+02
  10.500  0.1813E+01  0.1268E+02
  10.520  0.1742E+01  0.1271E+02
  10.540  0.1655E+01  0.1275E+02
  10.560  0.1557E+01  0.1278E+02
  10.580  0.1448E+01  0.1281E+02
  10.600  0.1334E+01  0.1283E+02
  10.620  0.1216E+01  0.1286E+02
  10.640  0.1098E+01  0.1288E+02
  10.660  0.9817E+00  0.1290E+02
  10.680  0.8706E+00  0.1292E+02
  10.700  0.7663E+00  0.1293E+02
  10.720  0.6705E+00  0.1294E+02
  10.740  0.5843E+00  0.1296E+02
  10.760  0.5083E+00  0.1297E+02
  10.780  0.4430E+00  0.1297E+02
  10.800  0.3884E+00  0.1298E+02
  10.820  0.3442E+00  0.1299E+02
  10.840  0.3101E+00  0.1300E+02
  10.860  0.2853E+00  0.1300E+02
  10.880  0.2694E+00  0.1301E+02
  10.900  0.2616E+00  0.1301E+02
  10.920  0.2614E+00  0.1302E+02
  10.940  0.2680E+00  0.1302E+02
  10.960  0.2809E+00  0.1303E+02
  10.980  0.2996E+00  0.1303E+02
  11.000  0.3235E+00  0.1304E+02
  11.020  0.3522E+00  0.1305E+02
  11.040  0.3851E+00  0.1306E+02
  11.060  0.4215E+00  0.1306E+02
  11.080  0.4610E+00  0.1307E+02
  11.100  0.5026E+00  0.1308E+02
  11.120  0.5457E+00  0.1309E+02
  11.140  0.5895E+00  0.1311E+02
  11.160  0.6330E+00  0.1312E+02
  11.180  0.6754E+00  0.1313E+02
  11.200  0.7159E+00  0.1315E+02
  11.220  0.7535E+00  0.1316E+02
  11.240  0.7877E+00  0.1318E+02
  11.260  0.8178E+00  0.1319E+02
  11.280  0.8434E+00  0.1321E+02
  11.300  0.8642E+00  0.1323E+02
  11.320  0.8800E+00  0.1325E+02
  11.340  0.8910E+00  0.1326E+02
  11.360  0.8974E+00  0.1328E+02
  11.380  0.8995E+00  0.1330E+02
  11.400  0.8979E+00  0.1332E+02
  11.420  0.8933E+00  0.1333E+02
  11.440  0.8862E+00  0.1335E+02
  11.460  0.8776E+00  0.1337E+02
  11.480  0.8680E+00  0.1339E+02
  11.500  0.8583E+00  0.1340E+02
  11.520  0.8493E+00  0.1342E+02
  11.540  0.8414E+00  0.1344E+02
  11.560  0.8354E+00  0.1346E+02
  11.580  0.8317E+00  0.1347E+02
  11.600  0.8306E+00  0.1349E+02
  11.620  0.8323E+00  0.1351E+02
  11.640  0.8370E+00  0.1352E+02
  11.660  0.8444E+00  0.1354E+02
  11.680  0.8545E+00  0.1356E+02
  11.700  0.8667E+00  0.1357E+02
  11.720  0.8807E+00  0.1359E+02
  11.740  0.8959E+00  0.1361E+02
  11.760  0.9115E+00  0.1363E+02
  11.780  0.9268E+00  0.1365E+02
  11.800  0.9412E+00  0.1366E+02
  11.820  0.9540E+00  0.1368E+02
  11.840  0.9645E+00  0.1370E+02
  11.860  0.9723E+00  0.1372E+02
  11.880  0.9769E+00  0.1374E+02
  11.900  0.9782E+00  0.1376E+02
  11.920  0.9762E+00  0.1378E+02
  11.940  0.9710E+00  0.1380E+02
  11.960  0.9627E+00  0.1382E+02
  11.980  0.9519E+00  0.1384E+02
  12.000  0.9389E+00  0.1386E+02
  12.020  0.9244E+00  0.1388E+02
  12.040  0.9089E+00  0.1389E+02
  12.060  0.8930E+00  0.1391E+02
  12.080  0.8772E+00  0.1393E+02
  12.100  0.8619E+00  0.1395E+02
  12.120  0.8475E+00  0.1396E+02
  12.140  0.8342E+00  0.1398E+02
  12.160  0.8222E+00  0.1400E+02
  12.180  0.8116E+00  0.1401E+02
  12.200  0.8022E+00  0.1403E+02
  12.220  0.7939E+00  0.1404E+02
  12.240  0.7866E+00  0.1406E+02
  12.260  0.7800E+00  0.1408E+02
  12.280  0.7739E+00  0.1409E+02
  12.300  0.7680E+00  0.1411E+02
  12.320  0.7621E+00  0.1412E+02
  12.340  0.7559E+00  0.1414E+02
  12.360  0.7494E+00  0.1415E+02
  12.380  0.7424E+00  0.1417E+02
  12.400  0.7349E+00  0.1418E+02
  12.420  0.7269E+00  0.1420E+02
  12.440  0.7183E+00  0.1421E+02
  12.460  0.7094E+00  0.1422E+02
  12.480  0.7002E+00  0.1424E+02
  12.500  0.6908E+00  0.1425E+02
  12.520  0.6815E+00  0.1427E+02
  12.540  0.6724E+00  0.1428E+02
  12.560  0.6636E+00  0.1429E+02
  12.580  0.6552E+00  0.1431E+02
  12.600  0.6475E+00  0.1432E+02
  12.620  0.6404E+00  0.1433E+02
  12.640  0.6340E+00  0.1434E+02
  12.660  0.6283E+00  0.1436E+02
  12.680  0.6234E+00  0.1437E+02
  12.700  0.6192E+00  0.1438E+02
  12.720  0.6157E+00  0.1439E+02
  12.740  0.6128E+00  0.1441E+02
  12.760  0.6105E+00  0.1442E+02
  12.780  0.6087E+00  0.1443E+02
  12.800  0.6075E+00  0.1444E+02
  12.820  0.6067E+00  0.1446E+02
  12.840  0.6065E+00  0.1447E+02
  12.860  0.6067E+00  0.1448E+02
  12.880  0.6074E+00  0.1449E+02
  12.900  0.6086E+00  0.1450E+02
  12.920  0.6104E+00  0.1452E+02
  12.940  0.6128E+00  0.1453E+02
  12.960  0.6158E+00  0.1454E+02
  12.980  0.6194E+00  0.1455E+02
  13.000  0.6236E+00  0.1457E+02
  13.020  0.6283E+00  0.1458E+02
  13.040  0.6333E+00  0.1459E+02
  13.060  0.6387E+00  0.1460E+02
  13.080  0.6442E+00  0.1462E+02
  13.100  0.6497E+00  0.1463E+02
  13.120  0.6550E+00  0.1464E+02
  13.140  0.6598E+00  0.1466E+02
  13.160  0.6641E+00  0.1467E+02
  13.180  0.6677E+00  0.1468E+02
  13.200  0.6704E+00  0.1470E+02
  13.220  0.6722E+00  0.1471E+02
  13.240  0.6730E+00  0.1472E+02
  13.260  0.6728E+00  0.1474E+02
  13.280  0.6717E+00  0.1475E+02
  13.300  0.6697E+00  0.1476E+02
  13.320  0.6669E+00  0.1478E+02
  13.340  0.6636E+00  0.1479E+02
  13.360  0.6597E+00  0.1480E+02
  13.380  0.6555E+00  0.1482E+02
  13.400  0.6510E+00  0.1483E+02
  13.420  0.6464E+00  0.1484E+02
  13.440  0.6416E+00  0.1485E+02
  13.460  0.6367E+00  0.1487E+02
  13.480  0.6317E+00  0.1488E+02
  13.500  0.6266E+00  0.1489E+02
  13.520  0.6212E+00  0.1491E+02
  13.540  0.6157E+00  0.1492E+02
  13.560  0.6101E+00  0.1493E+02
  13.580  0.6045E+00  0.1494E+02
  13.600  0.5990E+00  0.1495E+02
  13.620  0.5938E+00  0.1497E+02
  13.640  0.5893E+00  0.1498E+02
  13.660  0.5858E+00  0.1499E+02
  13.680  0.5838E+00  0.1500E+02
  13.700  0.5837E+00  0.1501E+02
  13.720  0.5858E+00  0.1502E+02
  13.740  0.5907E+00  0.1504E+02
  13.760  0.5985E+00  0.1505E+02
  13.780  0.6095E+00  0.1506E+02
  13.800  0.6237E+00  0.1507E+02
  13.820  0.6409E+00  0.1509E+02
  13.840  0.6607E+00  0.1510E+02
  13.860  0.6827E+00  0.1511E+02
  13.880  0.7061E+00  0.1513E+02
  13.900  0.7300E+00  0.1514E+02
  13.920  0.7534E+00  0.1516E+02
  13.940  0.7754E+00  0.1517E+02
  13.960  0.7948E+00  0.1519E+02
  13.980  0.8107E+00  0.1520E+02
  14.000  0.8222E+00  0.1522E+02
  14.020  0.8285E+00  0.1524E+02
  14.040  0.8292E+00  0.1525E+02
  14.060  0.8239E+00  0.1527E+02
  14.080  0.8125E+00  0.1529E+02
  14.100  0.7952E+00  0.1530E+02
  14.120  0.7723E+00  0.1532E+02
  14.140  0.7445E+00  0.1533E+02
  14.160  0.7123E+00  0.1535E+02
  14.180  0.6767E+00  0.1536E+02
  14.200  0.6384E+00  0.1537E+02
  14.220  0.5985E+00  0.1538E+02
  14.240  0.5577E+00  0.1540E+02
  14.260  0.5170E+00  0.1541E+02
  14.280  0.4772E+00  0.1542E+02
  14.300  0.4388E+00  0.1542E+02
  14.320  0.4025E+00  0.1543E+02
  14.340  0.3688E+00  0.1544E+02
  14.360  0.3379E+00  0.1545E+02
  14.380  0.3102E+00  0.1545E+02
  14.400  0.2856E+00  0.1546E+02
  14.420  0.2643E+00  0.1546E+02
  14.440  0.2462E+00  0.1547E+02
  14.460  0.2311E+00  0.1547E+02
  14.480  0.2188E+00  0.1548E+02
  14.500  0.2092E+00  0.1548E+02
  14.520  0.2018E+00  0.1549E+02
  14.540  0.1965E+00  0.1549E+02
  14.560  0.1930E+00  0.1549E+02
  14.580  0.1910E+00  0.1550E+02
  14.600  0.1901E+00  0.1550E+02
  14.620  0.1901E+00  0.1551E+02
  14.640  0.1909E+00  0.1551E+02
  14.660  0.1922E+00  0.1551E+02
  14.680  0.1937E+00  0.1552E+02
  14.700  0.1955E+00  0.1552E+02
  14.720  0.1973E+00  0.1552E+02
  14.740  0.1991E+00  0.1553E+02
  14.760  0.2008E+00  0.1553E+02
  14.780  0.2024E+00  0.1554E+02
  14.800  0.2038E+00  0.1554E+02
  14.820  0.2051E+00  0.1554E+02
  14.840  0.2062E+00  0.1555E+02
  14.860  0.2072E+00  0.1555E+02
  14.880  0.2081E+00  0.1556E+02
  14.900  0.2088E+00  0.1556E+02
  14.920  0.2094E+00  0.1557E+02
  14.940  0.2100E+00  0.1557E+02
  14.960  0.2105E+00  0.1557E+02
  14.980  0.2109E+00  0.1558E+02
  15.000  0.2114E+00  0.1558E+02
  15.020  0.2117E+00  0.1559E+02
  15.040  0.2121E+00  0.1559E+02
  15.060  0.2125E+00  0.1560E+02
  15.080  0.2129E+00  0.1560E+02
  15.100  0.2132E+00  0.1560E+02
  15.120  0.2136E+00  0.1561E+02
  15.140  0.2140E+00  0.1561E+02
  15.160  0.2144E+00  0.1562E+02
  15.180  0.2148E+00  0.1562E+02
  15.200  0.2153E+00  0.1563E+02
  15.220  0.2157E+00  0.1563E+02
  15.240  0.2162E+00  0.1563E+02
  15.260  0.2167E+00  0.1564E+02
  15.280  0.2173E+00  0.1564E+02
  15.300  0.2178E+00  0.1565E+02
  15.320  0.2184E+00  0.1565E+02
  15.340  0.2190E+00  0.1566E+02
  15.360  0.2196E+00  0.1566E+02
  15.380  0.2203E+00  0.1566E+02
  15.400  0.2210E+00  0.1567E+02
  15.420  0.2217E+00  0.1567E+02
  15.440  0.2225E+00  0.1568E+02
  15.460  0.2232E+00  0.1568E+02
  15.480  0.2241E+00  0.1569E+02
  15.500  0.2249E+00  0.1569E+02
  15.520  0.2258E+00  0.1570E+02
  15.540  0.2267E+00  0.1570E+02
  15.560  0.2277E+00  0.1570E+02
  15.580  0.2287E+00  0.1571E+02
  15.600  0.2297E+00  0.1571E+02
  15.620  0.2308E+00  0.1572E+02
  15.640  0.2319E+00  0.1572E+02
  15.660  0.2332E+00  0.1573E+02
  15.680  0.2345E+00  0.1573E+02
  15.700  0.2360E+00  0.1574E+02
  15.720  0.2376E+00  0.1574E+02
  15.740  0.2395E+00  0.1575E+02
  15.760  0.2416E+00  0.1575E+02
  15.780  0.2442E+00  0.1576E+02
  15.800  0.2472E+00  0.1576E+02
  15.820  0.2509E+00  0.1577E+02
  15.840  0.2553E+00  0.1577E+02
  15.860  0.2607E+00  0.1578E+02
  15.880  0.2671E+00  0.1578E+02
  15.900  0.2747E+00  0.1579E+02
  15.920  0.2836E+00  0.1579E+02
  15.940  0.2940E+00  0.1580E+02
  15.960  0.3059E+00  0.1581E+02
  15.980  0.3193E+00  0.1581E+02
  16.000  0.3341E+00  0.1582E+02
  16.020  0.3502E+00  0.1583E+02
  16.040  0.3673E+00  0.1583E+02
  16.060  0.3850E+00  0.1584E+02
  16.080  0.4029E+00  0.1585E+02
  16.100  0.4204E+00  0.1586E+02
  16.120  0.4368E+00  0.1587E+02
  16.140  0.4514E+00  0.1587E+02
  16.160  0.4635E+00  0.1588E+02
  16.180  0.4725E+00  0.1589E+02
  16.200  0.4776E+00  0.1590E+02
  16.220  0.4783E+00  0.1591E+02
  16.240  0.4742E+00  0.1592E+02
  16.260  0.4650E+00  0.1593E+02
  16.280  0.4507E+00  0.1594E+02
  16.300  0.4315E+00  0.1595E+02
  16.320  0.4075E+00  0.1596E+02
  16.340  0.3796E+00  0.1596E+02
  16.360  0.3482E+00  0.1597E+02
  16.380  0.3143E+00  0.1598E+02
  16.400  0.2787E+00  0.1598E+02
  16.420  0.2425E+00  0.1599E+02
  16.440  0.2065E+00  0.1599E+02
  16.460  0.1716E+00  0.1600E+02
  16.480  0.1386E+00  0.1600E+02
  16.500  0.1082E+00  0.1600E+02
  16.520  0.8081E-01  0.1600E+02
  16.540  0.5675E-01  0.1600E+02
  16.560  0.3620E-01  0.1600E+02
  16.580  0.1918E-01  0.1600E+02
  16.600  0.5556E-02  0.1600E+02
  16.620 -0.4903E-02  0.1600E+02
  16.640 -0.1251E-01  0.1600E+02
  16.660 -0.1764E-01  0.1600E+02
  16.680 -0.2068E-01  0.1600E+02
  16.700 -0.2203E-01  0.1600E+02
  16.720 -0.2207E-01  0.1600E+02
  16.740 -0.2115E-01  0.1600E+02
  16.760 -0.1958E-01  0.1600E+02
  16.780 -0.1761E-01  0.1600E+02
  16.800 -0.1545E-01  0.1600E+02
  16.820 -0.1326E-01  0.1600E+02
  16.840 -0.1116E-01  0.1600E+02
  16.860 -0.9216E-02  0.1600E+02
  16.880 -0.7481E-02  0.1600E+02
  16.900 -0.5975E-02  0.1600E+02
  16.920 -0.4698E-02  0.1600E+02
  16.940 -0.3638E-02  0.1600E+02
  16.960 -0.2777E-02  0.1600E+02
  16.980 -0.2090E-02  0.1600E+02
  17.000 -0.1551E-02  0.1600E+02
  17.020 -0.1136E-02  0.1600E+02
  17.040 -0.8211E-03  0.1600E+02
  17.060 -0.5857E-03  0.1600E+02
  17.080 -0.4125E-03  0.1600E+02
  17.100 -0.2868E-03  0.1600E+02
  17.120 -0.1970E-03  0.1600E+02
  17.140 -0.1336E-03  0.1600E+02
  17.160 -0.8950E-04  0.1600E+02
  17.180 -0.5924E-04  0.1600E+02
  17.200 -0.3873E-04  0.1600E+02
  17.220 -0.2503E-04  0.1600E+02
  17.240 -0.1598E-04  0.1600E+02
  17.260 -0.1008E-04  0.1600E+02
  17.280 -0.6285E-05  0.1600E+02
  17.300 -0.3873E-05  0.1600E+02
  17.320 -0.2359E-05  0.1600E+02
  17.340 -0.1420E-05  0.1600E+02
  17.360 -0.8449E-06  0.1600E+02
  17.380 -0.4970E-06  0.1600E+02
  17.400 -0.2890E-06  0.1600E+02
  17.420 -0.1661E-06  0.1600E+02
  17.440 -0.9441E-07  0.1600E+02
  17.460 -0.5304E-07  0.1600E+02
  17.480 -0.2946E-07  0.1600E+02
  17.500 -0.1618E-07  0.1600E+02
  17.520 -0.8786E-08  0.1600E+02
  17.540 -0.4717E-08  0.1600E+02
  17.560 -0.2504E-08  0.1600E+02
  17.580 -0.1314E-08  0.1600E+02
  17.600 -0.6821E-09  0.1600E+02
  17.620 -0.3500E-09  0.1600E+02
  17.640 -0.1776E-09  0.1600E+02
  17.660 -0.8914E-10  0.1600E+02
  17.680 -0.4423E-10  0.1600E+02
  17.700 -0.2170E-10  0.1600E+02
  17.720 -0.1053E-10  0.1600E+02
  17.740 -0.5054E-11  0.1600E+02
  17.760 -0.2398E-11  0.1600E+02
  17.780 -0.1125E-11  0.1600E+02
  17.800 -0.5223E-12  0.1600E+02
  17.820 -0.2397E-12  0.1600E+02
  17.840 -0.1088E-12  0.1600E+02
  17.860 -0.4884E-13  0.1600E+02
  17.880 -0.2168E-13  0.1600E+02
  17.900 -0.9519E-14  0.1600E+02
  17.920 -0.4133E-14  0.1600E+02
  17.940 -0.1775E-14  0.1600E+02
  17.960 -0.7538E-15  0.1600E+02
  17.980 -0.3166E-15  0.1600E+02
  18.000 -0.1315E-15  0.1600E+02
  18.020 -0.5404E-16  0.1600E+02
  18.040 -0.2196E-16  0.1600E+02
  18.060 -0.8825E-17  0.1600E+02
  18.080 -0.3508E-17  0.1600E+02
  18.100 -0.1379E-17  0.1600E+02
  18.120 -0.5362E-18  0.1600E+02
  18.140 -0.2062E-18  0.1600E+02
  18.160 -0.7844E-19  0.1600E+02
  18.180 -0.2951E-19  0.1600E+02
  18.200 -0.1098E-19  0.1600E+02
  18.220 -0.4041E-20  0.1600E+02
  18.240 -0.1471E-20  0.1600E+02
  18.260 -0.5296E-21  0.1600E+02
  18.280 -0.1886E-21  0.1600E+02
  18.300 -0.6643E-22  0.1600E+02
  18.320 -0.2314E-22  0.1600E+02
  18.340 -0.7974E-23  0.1600E+02
  18.360 -0.2718E-23  0.1600E+02
  18.380 -0.9162E-24  0.1600E+02
  18.400 -0.3055E-24  0.1600E+02
  18.420 -0.1007E-24  0.1600E+02
  18.440 -0.3286E-25  0.1600E+02
  18.460 -0.1060E-25  0.1600E+02
  18.480 -0.3384E-26  0.1600E+02
  18.500 -0.1068E-26  0.1600E+02
  18.520 -0.3336E-27  0.1600E+02
  18.540 -0.1030E-27  0.1600E+02
  18.560 -0.3147E-28  0.1600E+02
  18.580 -0.9509E-29  0.1600E+02
  18.600 -0.2842E-29  0.1600E+02
  18.620 -0.8402E-30  0.1600E+02
  18.640 -0.2457E-30  0.1600E+02
  18.660 -0.7106E-31  0.1600E+02
  18.680 -0.2033E-31  0.1600E+02
  18.700 -0.5754E-32  0.1600E+02
  18.720 -0.1611E-32  0.1600E+02
  18.740 -0.4459E-33  0.1600E+02
  18.760 -0.1221E-33  0.1600E+02
  18.780 -0.3309E-34  0.1600E+02
  18.800 -0.8866E-35  0.1600E+02
  18.820 -0.2350E-35  0.1600E+02
  18.840 -0.6161E-36  0.1600E+02
  18.860 -0.1598E-36  0.1600E+02
  18.880 -0.4099E-37  0.1600E+02
  18.900 -0.1040E-37  0.1600E+02
  18.920 -0.2610E-38  0.1600E+02
  18.940 -0.6481E-39  0.1600E+02
  18.960 -0.1592E-39  0.1600E+02
  18.980 -0.3866E-40  0.1600E+02
  19.000 -0.9291E-41  0.1600E+02
  19.020 -0.2208E-41  0.1600E+02
  19.040 -0.5192E-42  0.1600E+02
  19.060 -0.1207E-42  0.1600E+02
  19.080 -0.2778E-43  0.1600E+02
  19.100 -0.6321E-44  0.1600E+02
  19.120 -0.1423E-44  0.1600E+02
  19.140 -0.3168E-45  0.1600E+02
  19.160 -0.6977E-46  0.1600E+02
  19.180 -0.1520E-46  0.1600E+02
  19.200 -0.3275E-47  0.1600E+02
  19.220 -0.6982E-48  0.1600E+02
  19.240 -0.1472E-48  0.1600E+02
  19.260 -0.3071E-49  0.1600E+02
  19.280 -0.6336E-50  0.1600E+02
  19.300 -0.1293E-50  0.1600E+02
  19.320 -0.2611E-51  0.1600E+02
  19.340 -0.5213E-52  0.1600E+02
  19.360 -0.1030E-52  0.1600E+02
  19.380 -0.2012E-53  0.1600E+02
  19.400 -0.3890E-54  0.1600E+02
  19.420 -0.7437E-55  0.1600E+02
  19.440 -0.1407E-55  0.1600E+02
  19.460 -0.2632E-56  0.1600E+02
  19.480 -0.4870E-57  0.1600E+02
  19.500 -0.8915E-58  0.1600E+02
  19.520 -0.1614E-58  0.1600E+02
  19.540 -0.2892E-59  0.1600E+02
  19.560 -0.5124E-60  0.1600E+02
  19.580 -0.8982E-61  0.1600E+02
  19.600 -0.1557E-61  0.1600E+02
  19.620 -0.2671E-62  0.1600E+02
  19.640 -0.4531E-63  0.1600E+02
  19.660 -0.7605E-64  0.1600E+02
  19.680 -0.1262E-64  0.1600E+02
  19.700 -0.2073E-65  0.1600E+02
  19.720 -0.3368E-66  0.1600E+02
  19.740 -0.5412E-67  0.1600E+02
  19.760 -0.8602E-68  0.1600E+02
  19.780 -0.1353E-68  0.1600E+02
  19.800 -0.2104E-69  0.1600E+02
  19.820 -0.3237E-70  0.1600E+02
  19.840 -0.4926E-71  0.1600E+02
  19.860 -0.7417E-72  0.1600E+02
  19.880 -0.1105E-72  0.1600E+02
  19.900 -0.1627E-73  0.1600E+02
  19.920 -0.2371E-74  0.1600E+02
  19.940 -0.3419E-75  0.1600E+02
  19.960 -0.4875E-76  0.1600E+02
  19.980 -0.6877E-77  0.1600E+02
  20.000 -0.9597E-78  0.1600E+02
