# E (eV)   ldos(E)   pdos(E)    pdos(E)    pdos(E)   
  -6.565  0.161E-06  0.537E-07  0.537E-07  0.537E-07
  -6.515  0.508E-06  0.169E-06  0.169E-06  0.169E-06
  -6.465  0.151E-05  0.502E-06  0.502E-06  0.502E-06
  -6.415  0.419E-05  0.140E-05  0.140E-05  0.140E-05
  -6.365  0.110E-04  0.365E-05  0.365E-05  0.365E-05
  -6.315  0.269E-04  0.898E-05  0.898E-05  0.898E-05
  -6.265  0.622E-04  0.207E-04  0.207E-04  0.207E-04
  -6.215  0.135E-03  0.451E-04  0.451E-04  0.451E-04
  -6.165  0.277E-03  0.925E-04  0.925E-04  0.925E-04
  -6.115  0.536E-03  0.179E-03  0.179E-03  0.179E-03
  -6.065  0.978E-03  0.326E-03  0.326E-03  0.326E-03
  -6.015  0.169E-02  0.562E-03  0.562E-03  0.562E-03
  -5.965  0.275E-02  0.917E-03  0.917E-03  0.917E-03
  -5.915  0.426E-02  0.142E-02  0.142E-02  0.142E-02
  -5.865  0.626E-02  0.209E-02  0.209E-02  0.209E-02
  -5.815  0.876E-02  0.292E-02  0.292E-02  0.292E-02
  -5.765  0.117E-01  0.390E-02  0.390E-02  0.390E-02
  -5.715  0.150E-01  0.500E-02  0.500E-02  0.500E-02
  -5.665  0.185E-01  0.615E-02  0.615E-02  0.615E-02
  -5.615  0.219E-01  0.730E-02  0.730E-02  0.730E-02
  -5.565  0.252E-01  0.839E-02  0.839E-02  0.839E-02
  -5.515  0.281E-01  0.938E-02  0.938E-02  0.938E-02
  -5.465  0.307E-01  0.102E-01  0.102E-01  0.102E-01
  -5.415  0.329E-01  0.110E-01  0.110E-01  0.110E-01
  -5.365  0.346E-01  0.115E-01  0.115E-01  0.115E-01
  -5.315  0.360E-01  0.120E-01  0.120E-01  0.120E-01
  -5.265  0.371E-01  0.124E-01  0.124E-01  0.124E-01
  -5.215  0.380E-01  0.127E-01  0.127E-01  0.127E-01
  -5.165  0.386E-01  0.129E-01  0.129E-01  0.129E-01
  -5.115  0.391E-01  0.130E-01  0.130E-01  0.130E-01
  -5.065  0.394E-01  0.131E-01  0.131E-01  0.131E-01
  -5.015  0.397E-01  0.132E-01  0.132E-01  0.132E-01
  -4.965  0.399E-01  0.133E-01  0.133E-01  0.133E-01
  -4.915  0.400E-01  0.133E-01  0.133E-01  0.133E-01
  -4.865  0.401E-01  0.134E-01  0.134E-01  0.134E-01
  -4.815  0.401E-01  0.134E-01  0.134E-01  0.134E-01
  -4.765  0.401E-01  0.134E-01  0.134E-01  0.134E-01
  -4.715  0.401E-01  0.134E-01  0.134E-01  0.134E-01
  -4.665  0.401E-01  0.134E-01  0.134E-01  0.134E-01
  -4.615  0.400E-01  0.133E-01  0.133E-01  0.133E-01
  -4.565  0.399E-01  0.133E-01  0.133E-01  0.133E-01
  -4.515  0.398E-01  0.133E-01  0.133E-01  0.133E-01
  -4.465  0.398E-01  0.133E-01  0.133E-01  0.133E-01
  -4.415  0.397E-01  0.132E-01  0.132E-01  0.132E-01
  -4.365  0.396E-01  0.132E-01  0.132E-01  0.132E-01
  -4.315  0.395E-01  0.132E-01  0.132E-01  0.132E-01
  -4.265  0.394E-01  0.131E-01  0.131E-01  0.131E-01
  -4.215  0.393E-01  0.131E-01  0.131E-01  0.131E-01
  -4.165  0.392E-01  0.131E-01  0.131E-01  0.131E-01
  -4.115  0.392E-01  0.131E-01  0.131E-01  0.131E-01
  -4.065  0.392E-01  0.131E-01  0.131E-01  0.131E-01
  -4.015  0.393E-01  0.131E-01  0.131E-01  0.131E-01
  -3.965  0.394E-01  0.131E-01  0.131E-01  0.131E-01
  -3.915  0.395E-01  0.132E-01  0.132E-01  0.132E-01
  -3.865  0.398E-01  0.133E-01  0.133E-01  0.133E-01
  -3.815  0.402E-01  0.134E-01  0.134E-01  0.134E-01
  -3.765  0.407E-01  0.136E-01  0.136E-01  0.136E-01
  -3.715  0.411E-01  0.137E-01  0.137E-01  0.137E-01
  -3.665  0.415E-01  0.138E-01  0.138E-01  0.138E-01
  -3.615  0.417E-01  0.139E-01  0.139E-01  0.139E-01
  -3.565  0.416E-01  0.139E-01  0.139E-01  0.139E-01
  -3.515  0.410E-01  0.137E-01  0.137E-01  0.137E-01
  -3.465  0.398E-01  0.133E-01  0.133E-01  0.133E-01
  -3.415  0.381E-01  0.127E-01  0.127E-01  0.127E-01
  -3.365  0.360E-01  0.120E-01  0.120E-01  0.120E-01
  -3.315  0.338E-01  0.113E-01  0.113E-01  0.113E-01
  -3.265  0.315E-01  0.105E-01  0.105E-01  0.105E-01
  -3.215  0.294E-01  0.979E-02  0.979E-02  0.979E-02
  -3.165  0.276E-01  0.921E-02  0.921E-02  0.921E-02
  -3.115  0.263E-01  0.876E-02  0.876E-02  0.876E-02
  -3.065  0.253E-01  0.844E-02  0.844E-02  0.844E-02
  -3.015  0.247E-01  0.823E-02  0.823E-02  0.823E-02
  -2.965  0.243E-01  0.811E-02  0.811E-02  0.811E-02
  -2.915  0.241E-01  0.805E-02  0.805E-02  0.805E-02
  -2.865  0.241E-01  0.803E-02  0.803E-02  0.803E-02
  -2.815  0.241E-01  0.804E-02  0.804E-02  0.804E-02
  -2.765  0.242E-01  0.807E-02  0.807E-02  0.807E-02
  -2.715  0.244E-01  0.812E-02  0.812E-02  0.812E-02
  -2.665  0.246E-01  0.820E-02  0.820E-02  0.820E-02
  -2.615  0.250E-01  0.832E-02  0.832E-02  0.832E-02
  -2.565  0.256E-01  0.852E-02  0.852E-02  0.852E-02
  -2.515  0.266E-01  0.886E-02  0.886E-02  0.886E-02
  -2.465  0.283E-01  0.943E-02  0.943E-02  0.943E-02
  -2.415  0.311E-01  0.104E-01  0.104E-01  0.104E-01
  -2.365  0.354E-01  0.118E-01  0.118E-01  0.118E-01
  -2.315  0.417E-01  0.139E-01  0.139E-01  0.139E-01
  -2.265  0.504E-01  0.168E-01  0.168E-01  0.168E-01
  -2.215  0.616E-01  0.205E-01  0.205E-01  0.205E-01
  -2.165  0.753E-01  0.251E-01  0.251E-01  0.251E-01
  -2.115  0.910E-01  0.303E-01  0.303E-01  0.303E-01
  -2.065  0.108E+00  0.361E-01  0.361E-01  0.361E-01
  -2.015  0.128E+00  0.425E-01  0.425E-01  0.425E-01
  -1.965  0.149E+00  0.496E-01  0.496E-01  0.496E-01
  -1.915  0.173E+00  0.578E-01  0.578E-01  0.578E-01
  -1.865  0.202E+00  0.675E-01  0.675E-01  0.675E-01
  -1.815  0.237E+00  0.791E-01  0.791E-01  0.791E-01
  -1.765  0.278E+00  0.926E-01  0.926E-01  0.926E-01
  -1.715  0.321E+00  0.107E+00  0.107E+00  0.107E+00
  -1.665  0.363E+00  0.121E+00  0.121E+00  0.121E+00
  -1.615  0.398E+00  0.133E+00  0.133E+00  0.133E+00
  -1.565  0.421E+00  0.140E+00  0.140E+00  0.140E+00
  -1.515  0.428E+00  0.143E+00  0.143E+00  0.143E+00
  -1.465  0.418E+00  0.139E+00  0.139E+00  0.139E+00
  -1.415  0.394E+00  0.131E+00  0.131E+00  0.131E+00
  -1.365  0.361E+00  0.120E+00  0.120E+00  0.120E+00
  -1.315  0.326E+00  0.109E+00  0.109E+00  0.109E+00
  -1.265  0.292E+00  0.974E-01  0.974E-01  0.974E-01
  -1.215  0.264E+00  0.879E-01  0.879E-01  0.879E-01
  -1.165  0.242E+00  0.805E-01  0.805E-01  0.805E-01
  -1.115  0.224E+00  0.746E-01  0.746E-01  0.746E-01
  -1.065  0.208E+00  0.694E-01  0.694E-01  0.694E-01
  -1.015  0.193E+00  0.643E-01  0.643E-01  0.643E-01
  -0.965  0.177E+00  0.589E-01  0.589E-01  0.589E-01
  -0.915  0.160E+00  0.532E-01  0.532E-01  0.532E-01
  -0.865  0.143E+00  0.475E-01  0.475E-01  0.475E-01
  -0.815  0.127E+00  0.422E-01  0.422E-01  0.422E-01
  -0.765  0.113E+00  0.377E-01  0.377E-01  0.377E-01
  -0.715  0.102E+00  0.339E-01  0.339E-01  0.339E-01
  -0.665  0.928E-01  0.309E-01  0.309E-01  0.309E-01
  -0.615  0.857E-01  0.286E-01  0.286E-01  0.286E-01
  -0.565  0.798E-01  0.266E-01  0.266E-01  0.266E-01
  -0.515  0.749E-01  0.250E-01  0.250E-01  0.250E-01
  -0.465  0.707E-01  0.236E-01  0.236E-01  0.236E-01
  -0.415  0.670E-01  0.223E-01  0.223E-01  0.223E-01
  -0.365  0.639E-01  0.213E-01  0.213E-01  0.213E-01
  -0.315  0.612E-01  0.204E-01  0.204E-01  0.204E-01
  -0.265  0.590E-01  0.197E-01  0.197E-01  0.197E-01
  -0.215  0.572E-01  0.191E-01  0.191E-01  0.191E-01
  -0.165  0.557E-01  0.186E-01  0.186E-01  0.186E-01
  -0.115  0.545E-01  0.182E-01  0.182E-01  0.182E-01
  -0.065  0.534E-01  0.178E-01  0.178E-01  0.178E-01
  -0.015  0.525E-01  0.175E-01  0.175E-01  0.175E-01
   0.035  0.517E-01  0.172E-01  0.172E-01  0.172E-01
   0.085  0.510E-01  0.170E-01  0.170E-01  0.170E-01
   0.135  0.503E-01  0.168E-01  0.168E-01  0.168E-01
   0.185  0.497E-01  0.166E-01  0.166E-01  0.166E-01
   0.235  0.492E-01  0.164E-01  0.164E-01  0.164E-01
   0.285  0.487E-01  0.162E-01  0.162E-01  0.162E-01
   0.335  0.482E-01  0.161E-01  0.161E-01  0.161E-01
   0.385  0.478E-01  0.159E-01  0.159E-01  0.159E-01
   0.435  0.474E-01  0.158E-01  0.158E-01  0.158E-01
   0.485  0.470E-01  0.157E-01  0.157E-01  0.157E-01
   0.535  0.467E-01  0.156E-01  0.156E-01  0.156E-01
   0.585  0.464E-01  0.155E-01  0.155E-01  0.155E-01
   0.635  0.461E-01  0.154E-01  0.154E-01  0.154E-01
   0.685  0.458E-01  0.153E-01  0.153E-01  0.153E-01
   0.735  0.455E-01  0.152E-01  0.152E-01  0.152E-01
   0.785  0.453E-01  0.151E-01  0.151E-01  0.151E-01
   0.835  0.450E-01  0.150E-01  0.150E-01  0.150E-01
   0.885  0.448E-01  0.149E-01  0.149E-01  0.149E-01
   0.935  0.446E-01  0.149E-01  0.149E-01  0.149E-01
   0.985  0.444E-01  0.148E-01  0.148E-01  0.148E-01
   1.035  0.443E-01  0.148E-01  0.148E-01  0.148E-01
   1.085  0.441E-01  0.147E-01  0.147E-01  0.147E-01
   1.135  0.441E-01  0.147E-01  0.147E-01  0.147E-01
   1.185  0.441E-01  0.147E-01  0.147E-01  0.147E-01
   1.235  0.445E-01  0.148E-01  0.148E-01  0.148E-01
   1.285  0.456E-01  0.152E-01  0.152E-01  0.152E-01
   1.335  0.477E-01  0.159E-01  0.159E-01  0.159E-01
   1.385  0.519E-01  0.173E-01  0.173E-01  0.173E-01
   1.435  0.594E-01  0.198E-01  0.198E-01  0.198E-01
   1.485  0.717E-01  0.239E-01  0.239E-01  0.239E-01
   1.535  0.906E-01  0.302E-01  0.302E-01  0.302E-01
   1.585  0.118E+00  0.393E-01  0.393E-01  0.393E-01
   1.635  0.154E+00  0.514E-01  0.514E-01  0.514E-01
   1.685  0.200E+00  0.665E-01  0.665E-01  0.665E-01
   1.735  0.252E+00  0.840E-01  0.840E-01  0.840E-01
   1.785  0.308E+00  0.103E+00  0.103E+00  0.103E+00
   1.835  0.363E+00  0.121E+00  0.121E+00  0.121E+00
   1.885  0.413E+00  0.138E+00  0.138E+00  0.138E+00
   1.935  0.454E+00  0.151E+00  0.151E+00  0.151E+00
   1.985  0.484E+00  0.161E+00  0.161E+00  0.161E+00
   2.035  0.504E+00  0.168E+00  0.168E+00  0.168E+00
   2.085  0.518E+00  0.173E+00  0.173E+00  0.173E+00
   2.135  0.530E+00  0.177E+00  0.177E+00  0.177E+00
   2.185  0.543E+00  0.181E+00  0.181E+00  0.181E+00
   2.235  0.559E+00  0.186E+00  0.186E+00  0.186E+00
   2.285  0.576E+00  0.192E+00  0.192E+00  0.192E+00
   2.335  0.593E+00  0.198E+00  0.198E+00  0.198E+00
   2.385  0.605E+00  0.202E+00  0.202E+00  0.202E+00
   2.435  0.610E+00  0.203E+00  0.203E+00  0.203E+00
   2.485  0.606E+00  0.202E+00  0.202E+00  0.202E+00
   2.535  0.594E+00  0.198E+00  0.198E+00  0.198E+00
   2.585  0.574E+00  0.191E+00  0.191E+00  0.191E+00
   2.635  0.551E+00  0.184E+00  0.184E+00  0.184E+00
   2.685  0.527E+00  0.176E+00  0.176E+00  0.176E+00
   2.735  0.505E+00  0.168E+00  0.168E+00  0.168E+00
   2.785  0.487E+00  0.162E+00  0.162E+00  0.162E+00
   2.835  0.474E+00  0.158E+00  0.158E+00  0.158E+00
   2.885  0.468E+00  0.156E+00  0.156E+00  0.156E+00
   2.935  0.468E+00  0.156E+00  0.156E+00  0.156E+00
   2.985  0.475E+00  0.158E+00  0.158E+00  0.158E+00
   3.035  0.489E+00  0.163E+00  0.163E+00  0.163E+00
   3.085  0.509E+00  0.170E+00  0.170E+00  0.170E+00
   3.135  0.534E+00  0.178E+00  0.178E+00  0.178E+00
   3.185  0.560E+00  0.187E+00  0.187E+00  0.187E+00
   3.235  0.584E+00  0.195E+00  0.195E+00  0.195E+00
   3.285  0.603E+00  0.201E+00  0.201E+00  0.201E+00
   3.335  0.612E+00  0.204E+00  0.204E+00  0.204E+00
   3.385  0.609E+00  0.203E+00  0.203E+00  0.203E+00
   3.435  0.596E+00  0.199E+00  0.199E+00  0.199E+00
   3.485  0.574E+00  0.191E+00  0.191E+00  0.191E+00
   3.535  0.545E+00  0.182E+00  0.182E+00  0.182E+00
   3.585  0.514E+00  0.171E+00  0.171E+00  0.171E+00
   3.635  0.483E+00  0.161E+00  0.161E+00  0.161E+00
   3.685  0.452E+00  0.151E+00  0.151E+00  0.151E+00
   3.735  0.424E+00  0.141E+00  0.141E+00  0.141E+00
   3.785  0.397E+00  0.132E+00  0.132E+00  0.132E+00
   3.835  0.371E+00  0.124E+00  0.124E+00  0.124E+00
   3.885  0.348E+00  0.116E+00  0.116E+00  0.116E+00
   3.935  0.326E+00  0.109E+00  0.109E+00  0.109E+00
   3.985  0.306E+00  0.102E+00  0.102E+00  0.102E+00
   4.035  0.289E+00  0.963E-01  0.963E-01  0.963E-01
   4.085  0.275E+00  0.916E-01  0.916E-01  0.916E-01
   4.135  0.264E+00  0.879E-01  0.879E-01  0.879E-01
   4.185  0.255E+00  0.850E-01  0.850E-01  0.850E-01
   4.235  0.248E+00  0.827E-01  0.827E-01  0.827E-01
   4.285  0.243E+00  0.809E-01  0.809E-01  0.809E-01
   4.335  0.239E+00  0.796E-01  0.796E-01  0.796E-01
   4.385  0.236E+00  0.785E-01  0.785E-01  0.785E-01
   4.435  0.234E+00  0.778E-01  0.778E-01  0.778E-01
   4.485  0.233E+00  0.776E-01  0.776E-01  0.776E-01
   4.535  0.234E+00  0.780E-01  0.780E-01  0.780E-01
   4.585  0.238E+00  0.794E-01  0.794E-01  0.794E-01
   4.635  0.247E+00  0.823E-01  0.823E-01  0.823E-01
   4.685  0.262E+00  0.873E-01  0.873E-01  0.873E-01
   4.735  0.284E+00  0.948E-01  0.948E-01  0.948E-01
   4.785  0.316E+00  0.105E+00  0.105E+00  0.105E+00
   4.835  0.355E+00  0.118E+00  0.118E+00  0.118E+00
   4.885  0.400E+00  0.133E+00  0.133E+00  0.133E+00
   4.935  0.448E+00  0.149E+00  0.149E+00  0.149E+00
   4.985  0.493E+00  0.164E+00  0.164E+00  0.164E+00
   5.035  0.531E+00  0.177E+00  0.177E+00  0.177E+00
   5.085  0.558E+00  0.186E+00  0.186E+00  0.186E+00
   5.135  0.573E+00  0.191E+00  0.191E+00  0.191E+00
   5.185  0.575E+00  0.192E+00  0.192E+00  0.192E+00
   5.235  0.568E+00  0.189E+00  0.189E+00  0.189E+00
   5.285  0.553E+00  0.184E+00  0.184E+00  0.184E+00
   5.335  0.536E+00  0.179E+00  0.179E+00  0.179E+00
   5.385  0.519E+00  0.173E+00  0.173E+00  0.173E+00
   5.435  0.504E+00  0.168E+00  0.168E+00  0.168E+00
   5.485  0.493E+00  0.164E+00  0.164E+00  0.164E+00
   5.535  0.486E+00  0.162E+00  0.162E+00  0.162E+00
   5.585  0.483E+00  0.161E+00  0.161E+00  0.161E+00
   5.635  0.486E+00  0.162E+00  0.162E+00  0.162E+00
   5.685  0.493E+00  0.164E+00  0.164E+00  0.164E+00
   5.735  0.506E+00  0.169E+00  0.169E+00  0.169E+00
   5.785  0.524E+00  0.175E+00  0.175E+00  0.175E+00
   5.835  0.548E+00  0.183E+00  0.183E+00  0.183E+00
   5.885  0.575E+00  0.192E+00  0.192E+00  0.192E+00
   5.935  0.602E+00  0.201E+00  0.201E+00  0.201E+00
   5.985  0.626E+00  0.209E+00  0.209E+00  0.209E+00
   6.035  0.640E+00  0.213E+00  0.213E+00  0.213E+00
   6.085  0.639E+00  0.213E+00  0.213E+00  0.213E+00
   6.135  0.617E+00  0.206E+00  0.206E+00  0.206E+00
   6.185  0.574E+00  0.191E+00  0.191E+00  0.191E+00
   6.235  0.511E+00  0.170E+00  0.170E+00  0.170E+00
   6.285  0.433E+00  0.144E+00  0.144E+00  0.144E+00
   6.335  0.350E+00  0.117E+00  0.117E+00  0.117E+00
   6.385  0.270E+00  0.899E-01  0.899E-01  0.899E-01
   6.435  0.200E+00  0.667E-01  0.667E-01  0.667E-01
   6.485  0.146E+00  0.488E-01  0.488E-01  0.488E-01
   6.535  0.111E+00  0.370E-01  0.370E-01  0.370E-01
   6.585  0.936E-01  0.312E-01  0.312E-01  0.312E-01
   6.635  0.915E-01  0.305E-01  0.305E-01  0.305E-01
   6.685  0.101E+00  0.338E-01  0.338E-01  0.338E-01
   6.735  0.119E+00  0.397E-01  0.397E-01  0.397E-01
   6.785  0.140E+00  0.468E-01  0.468E-01  0.468E-01
   6.835  0.162E+00  0.540E-01  0.540E-01  0.540E-01
   6.885  0.181E+00  0.602E-01  0.602E-01  0.602E-01
   6.935  0.194E+00  0.648E-01  0.648E-01  0.648E-01
   6.985  0.202E+00  0.675E-01  0.675E-01  0.675E-01
   7.035  0.205E+00  0.685E-01  0.685E-01  0.685E-01
   7.085  0.205E+00  0.682E-01  0.682E-01  0.682E-01
   7.135  0.202E+00  0.672E-01  0.672E-01  0.672E-01
   7.185  0.198E+00  0.661E-01  0.661E-01  0.661E-01
   7.235  0.196E+00  0.655E-01  0.655E-01  0.655E-01
   7.285  0.197E+00  0.656E-01  0.656E-01  0.656E-01
   7.335  0.199E+00  0.664E-01  0.664E-01  0.664E-01
   7.385  0.204E+00  0.679E-01  0.679E-01  0.679E-01
   7.435  0.209E+00  0.698E-01  0.698E-01  0.698E-01
   7.485  0.215E+00  0.717E-01  0.717E-01  0.717E-01
   7.535  0.221E+00  0.736E-01  0.736E-01  0.736E-01
   7.585  0.226E+00  0.752E-01  0.752E-01  0.752E-01
   7.635  0.229E+00  0.765E-01  0.765E-01  0.765E-01
   7.685  0.232E+00  0.774E-01  0.774E-01  0.774E-01
   7.735  0.234E+00  0.780E-01  0.780E-01  0.780E-01
   7.785  0.235E+00  0.783E-01  0.783E-01  0.783E-01
   7.835  0.235E+00  0.782E-01  0.782E-01  0.782E-01
   7.885  0.233E+00  0.778E-01  0.778E-01  0.778E-01
   7.935  0.231E+00  0.771E-01  0.771E-01  0.771E-01
   7.985  0.229E+00  0.762E-01  0.762E-01  0.762E-01
   8.035  0.226E+00  0.754E-01  0.754E-01  0.754E-01
   8.085  0.224E+00  0.746E-01  0.746E-01  0.746E-01
   8.135  0.223E+00  0.742E-01  0.742E-01  0.742E-01
   8.185  0.223E+00  0.742E-01  0.742E-01  0.742E-01
   8.235  0.225E+00  0.750E-01  0.750E-01  0.750E-01
   8.285  0.231E+00  0.769E-01  0.769E-01  0.769E-01
   8.335  0.242E+00  0.806E-01  0.806E-01  0.806E-01
   8.385  0.260E+00  0.867E-01  0.867E-01  0.867E-01
   8.435  0.288E+00  0.960E-01  0.960E-01  0.960E-01
   8.485  0.328E+00  0.109E+00  0.109E+00  0.109E+00
   8.535  0.381E+00  0.127E+00  0.127E+00  0.127E+00
   8.585  0.445E+00  0.148E+00  0.148E+00  0.148E+00
   8.635  0.518E+00  0.173E+00  0.173E+00  0.173E+00
   8.685  0.593E+00  0.198E+00  0.198E+00  0.198E+00
   8.735  0.661E+00  0.220E+00  0.220E+00  0.220E+00
   8.785  0.716E+00  0.239E+00  0.239E+00  0.239E+00
   8.835  0.752E+00  0.251E+00  0.251E+00  0.251E+00
   8.885  0.766E+00  0.255E+00  0.255E+00  0.255E+00
   8.935  0.761E+00  0.254E+00  0.254E+00  0.254E+00
   8.985  0.740E+00  0.247E+00  0.247E+00  0.247E+00
   9.035  0.710E+00  0.237E+00  0.237E+00  0.237E+00
   9.085  0.676E+00  0.225E+00  0.225E+00  0.225E+00
   9.135  0.644E+00  0.215E+00  0.215E+00  0.215E+00
   9.185  0.617E+00  0.206E+00  0.206E+00  0.206E+00
   9.235  0.597E+00  0.199E+00  0.199E+00  0.199E+00
   9.285  0.587E+00  0.196E+00  0.196E+00  0.196E+00
   9.335  0.587E+00  0.196E+00  0.196E+00  0.196E+00
   9.385  0.598E+00  0.199E+00  0.199E+00  0.199E+00
   9.435  0.617E+00  0.206E+00  0.206E+00  0.206E+00
   9.485  0.640E+00  0.213E+00  0.213E+00  0.213E+00
   9.535  0.661E+00  0.220E+00  0.220E+00  0.220E+00
   9.585  0.674E+00  0.225E+00  0.225E+00  0.225E+00
   9.635  0.672E+00  0.224E+00  0.224E+00  0.224E+00
   9.685  0.653E+00  0.218E+00  0.218E+00  0.218E+00
   9.735  0.614E+00  0.205E+00  0.205E+00  0.205E+00
   9.785  0.561E+00  0.187E+00  0.187E+00  0.187E+00
   9.835  0.500E+00  0.167E+00  0.167E+00  0.167E+00
   9.885  0.437E+00  0.146E+00  0.146E+00  0.146E+00
   9.935  0.380E+00  0.127E+00  0.127E+00  0.127E+00
   9.985  0.333E+00  0.111E+00  0.111E+00  0.111E+00
  10.035  0.302E+00  0.101E+00  0.101E+00  0.101E+00
  10.085  0.285E+00  0.950E-01  0.950E-01  0.950E-01
  10.135  0.282E+00  0.941E-01  0.941E-01  0.941E-01
  10.185  0.291E+00  0.970E-01  0.970E-01  0.970E-01
  10.235  0.307E+00  0.102E+00  0.102E+00  0.102E+00
  10.285  0.326E+00  0.109E+00  0.109E+00  0.109E+00
  10.335  0.344E+00  0.115E+00  0.115E+00  0.115E+00
  10.385  0.355E+00  0.118E+00  0.118E+00  0.118E+00
  10.435  0.357E+00  0.119E+00  0.119E+00  0.119E+00
  10.485  0.347E+00  0.116E+00  0.116E+00  0.116E+00
  10.535  0.328E+00  0.109E+00  0.109E+00  0.109E+00
  10.585  0.300E+00  0.100E+00  0.100E+00  0.100E+00
  10.635  0.268E+00  0.892E-01  0.892E-01  0.892E-01
  10.685  0.234E+00  0.781E-01  0.781E-01  0.781E-01
  10.735  0.204E+00  0.679E-01  0.679E-01  0.679E-01
  10.785  0.178E+00  0.594E-01  0.594E-01  0.594E-01
  10.835  0.159E+00  0.532E-01  0.532E-01  0.532E-01
  10.885  0.148E+00  0.493E-01  0.493E-01  0.493E-01
  10.935  0.144E+00  0.479E-01  0.479E-01  0.479E-01
  10.985  0.146E+00  0.486E-01  0.486E-01  0.486E-01
  11.035  0.153E+00  0.510E-01  0.510E-01  0.510E-01
  11.085  0.165E+00  0.548E-01  0.548E-01  0.548E-01
  11.135  0.178E+00  0.595E-01  0.595E-01  0.595E-01
  11.185  0.193E+00  0.643E-01  0.643E-01  0.643E-01
  11.235  0.207E+00  0.689E-01  0.689E-01  0.689E-01
  11.285  0.218E+00  0.727E-01  0.727E-01  0.727E-01
  11.335  0.226E+00  0.755E-01  0.755E-01  0.755E-01
  11.385  0.232E+00  0.772E-01  0.772E-01  0.772E-01
  11.435  0.234E+00  0.780E-01  0.780E-01  0.780E-01
  11.485  0.234E+00  0.782E-01  0.782E-01  0.782E-01
  11.535  0.234E+00  0.780E-01  0.780E-01  0.780E-01
  11.585  0.233E+00  0.777E-01  0.777E-01  0.777E-01
  11.635  0.233E+00  0.776E-01  0.776E-01  0.776E-01
  11.685  0.233E+00  0.778E-01  0.778E-01  0.778E-01
  11.735  0.234E+00  0.780E-01  0.780E-01  0.780E-01
  11.785  0.235E+00  0.782E-01  0.782E-01  0.782E-01
  11.835  0.235E+00  0.782E-01  0.782E-01  0.782E-01
  11.885  0.234E+00  0.779E-01  0.779E-01  0.779E-01
  11.935  0.231E+00  0.770E-01  0.770E-01  0.770E-01
  11.985  0.227E+00  0.757E-01  0.757E-01  0.757E-01
  12.035  0.222E+00  0.740E-01  0.740E-01  0.740E-01
  12.085  0.217E+00  0.722E-01  0.722E-01  0.722E-01
  12.135  0.211E+00  0.702E-01  0.702E-01  0.702E-01
  12.185  0.205E+00  0.684E-01  0.684E-01  0.684E-01
  12.235  0.200E+00  0.667E-01  0.667E-01  0.667E-01
  12.285  0.196E+00  0.653E-01  0.653E-01  0.653E-01
  12.335  0.192E+00  0.640E-01  0.640E-01  0.640E-01
  12.385  0.189E+00  0.630E-01  0.630E-01  0.630E-01
  12.435  0.186E+00  0.621E-01  0.621E-01  0.621E-01
  12.485  0.184E+00  0.613E-01  0.613E-01  0.613E-01
  12.535  0.182E+00  0.607E-01  0.607E-01  0.607E-01
  12.585  0.180E+00  0.602E-01  0.602E-01  0.602E-01
  12.635  0.179E+00  0.597E-01  0.597E-01  0.597E-01
  12.685  0.178E+00  0.594E-01  0.594E-01  0.594E-01
  12.735  0.178E+00  0.592E-01  0.592E-01  0.592E-01
  12.785  0.177E+00  0.591E-01  0.591E-01  0.591E-01
  12.835  0.178E+00  0.592E-01  0.592E-01  0.592E-01
  12.885  0.178E+00  0.594E-01  0.594E-01  0.594E-01
  12.935  0.179E+00  0.598E-01  0.598E-01  0.598E-01
  12.985  0.181E+00  0.603E-01  0.603E-01  0.603E-01
  13.035  0.183E+00  0.609E-01  0.609E-01  0.609E-01
  13.085  0.185E+00  0.616E-01  0.616E-01  0.616E-01
  13.135  0.187E+00  0.623E-01  0.623E-01  0.623E-01
  13.185  0.188E+00  0.628E-01  0.628E-01  0.628E-01
  13.235  0.189E+00  0.630E-01  0.630E-01  0.630E-01
  13.285  0.189E+00  0.630E-01  0.630E-01  0.630E-01
  13.335  0.188E+00  0.627E-01  0.627E-01  0.627E-01
  13.385  0.186E+00  0.621E-01  0.621E-01  0.621E-01
  13.435  0.184E+00  0.612E-01  0.612E-01  0.612E-01
  13.485  0.180E+00  0.600E-01  0.600E-01  0.600E-01
  13.535  0.175E+00  0.585E-01  0.585E-01  0.585E-01
  13.585  0.170E+00  0.566E-01  0.566E-01  0.566E-01
  13.635  0.163E+00  0.544E-01  0.544E-01  0.544E-01
  13.685  0.156E+00  0.521E-01  0.521E-01  0.521E-01
  13.735  0.149E+00  0.498E-01  0.498E-01  0.498E-01
  13.785  0.143E+00  0.476E-01  0.476E-01  0.476E-01
  13.835  0.138E+00  0.459E-01  0.459E-01  0.459E-01
  13.885  0.134E+00  0.446E-01  0.446E-01  0.446E-01
  13.935  0.131E+00  0.437E-01  0.437E-01  0.437E-01
  13.985  0.129E+00  0.430E-01  0.430E-01  0.430E-01
  14.035  0.127E+00  0.422E-01  0.422E-01  0.422E-01
  14.085  0.123E+00  0.411E-01  0.411E-01  0.411E-01
  14.135  0.119E+00  0.397E-01  0.397E-01  0.397E-01
  14.185  0.113E+00  0.378E-01  0.378E-01  0.378E-01
  14.235  0.107E+00  0.355E-01  0.355E-01  0.355E-01
  14.285  0.991E-01  0.330E-01  0.330E-01  0.330E-01
  14.335  0.916E-01  0.305E-01  0.305E-01  0.305E-01
  14.385  0.847E-01  0.282E-01  0.282E-01  0.282E-01
  14.435  0.787E-01  0.262E-01  0.262E-01  0.262E-01
  14.485  0.738E-01  0.246E-01  0.246E-01  0.246E-01
  14.535  0.701E-01  0.234E-01  0.234E-01  0.234E-01
  14.585  0.675E-01  0.225E-01  0.225E-01  0.225E-01
  14.635  0.658E-01  0.219E-01  0.219E-01  0.219E-01
  14.685  0.649E-01  0.216E-01  0.216E-01  0.216E-01
  14.735  0.644E-01  0.215E-01  0.215E-01  0.215E-01
  14.785  0.643E-01  0.214E-01  0.214E-01  0.214E-01
  14.835  0.645E-01  0.215E-01  0.215E-01  0.215E-01
  14.885  0.647E-01  0.216E-01  0.216E-01  0.216E-01
  14.935  0.651E-01  0.217E-01  0.217E-01  0.217E-01
  14.985  0.655E-01  0.218E-01  0.218E-01  0.218E-01
  15.035  0.661E-01  0.220E-01  0.220E-01  0.220E-01
